# Energy(eV) epsilon_r
0	7.9591
0.0129	7.9591
0.0259	7.9593
0.0388	7.9596
0.0518	7.96
0.0647	7.9606
0.0777	7.9612
0.0906	7.962
0.1036	7.9629
0.1165	7.964
0.1295	7.9651
0.1424	7.9664
0.1553	7.9678
0.1683	7.9693
0.1812	7.971
0.1942	7.9728
0.2071	7.9747
0.2201	7.9767
0.233	7.9789
0.246	7.9812
0.2589	7.9836
0.2719	7.9861
0.2848	7.9888
0.2977	7.9916
0.3107	7.9945
0.3236	7.9976
0.3366	8.0008
0.3495	8.0042
0.3625	8.0077
0.3754	8.0113
0.3884	8.0151
0.4013	8.019
0.4143	8.0231
0.4272	8.0273
0.4401	8.0316
0.4531	8.0362
0.466	8.0408
0.479	8.0457
0.4919	8.0507
0.5049	8.0558
0.5178	8.0612
0.5308	8.0667
0.5437	8.0724
0.5567	8.0782
0.5696	8.0843
0.5825	8.0905
0.5955	8.097
0.6084	8.1036
0.6214	8.1105
0.6343	8.1175
0.6473	8.1248
0.6602	8.1323
0.6732	8.14
0.6861	8.148
0.6991	8.1562
0.712	8.1645
0.7249	8.1731
0.7379	8.1818
0.7508	8.1907
0.7638	8.1996
0.7767	8.2085
0.7897	8.2172
0.8026	8.2255
0.8156	8.2333
0.8285	8.2404
0.8415	8.2464
0.8544	8.2512
0.8673	8.2546
0.8803	8.2567
0.8932	8.2576
0.9062	8.2576
0.9191	8.2574
0.9321	8.2573
0.945	8.2581
0.958	8.2603
0.9709	8.2641
0.9839	8.2697
0.9968	8.2772
1.0097	8.2865
1.0227	8.2973
1.0356	8.3093
1.0486	8.3225
1.0615	8.3365
1.0745	8.3512
1.0874	8.3666
1.1004	8.3824
1.1133	8.3986
1.1263	8.4153
1.1392	8.4322
1.1521	8.4495
1.1651	8.4669
1.178	8.4845
1.191	8.5021
1.2039	8.5194
1.2169	8.5362
1.2298	8.5521
1.2428	8.5666
1.2557	8.5791
1.2687	8.5889
1.2816	8.5953
1.2945	8.5979
1.3075	8.5963
1.3204	8.5905
1.3334	8.5811
1.3463	8.5691
1.3593	8.556
1.3722	8.5433
1.3852	8.5327
1.3981	8.5255
1.4111	8.5227
1.424	8.5245
1.437	8.5311
1.4499	8.542
1.4628	8.5567
1.4758	8.5744
1.4887	8.5946
1.5017	8.6166
1.5146	8.6399
1.5276	8.6641
1.5405	8.689
1.5535	8.7141
1.5664	8.7394
1.5794	8.7644
1.5923	8.7889
1.6052	8.8126
1.6182	8.8352
1.6311	8.8562
1.6441	8.8753
1.657	8.8922
1.67	8.9068
1.6829	8.9191
1.6959	8.9293
1.7088	8.9381
1.7218	8.9461
1.7347	8.954
1.7476	8.9627
1.7606	8.9729
1.7735	8.985
1.7865	8.9992
1.7994	9.0154
1.8124	9.0335
1.8253	9.0531
1.8383	9.0737
1.8512	9.0952
1.8642	9.1172
1.8771	9.1397
1.89	9.1626
1.903	9.186
1.9159	9.21
1.9289	9.2347
1.9418	9.2601
1.9548	9.2861
1.9677	9.3125
1.9807	9.3391
1.9936	9.3658
2.0066	9.3922
2.0195	9.4183
2.0324	9.4443
2.0454	9.4703
2.0583	9.4968
2.0713	9.524
2.0842	9.5524
2.0972	9.5822
2.1101	9.6135
2.1231	9.6463
2.136	9.6804
2.149	9.7156
2.1619	9.7518
2.1748	9.7889
2.1878	9.8269
2.2007	9.8659
2.2137	9.9059
2.2266	9.9472
2.2396	9.99
2.2525	10.0344
2.2655	10.0805
2.2784	10.1282
2.2914	10.1776
2.3043	10.2283
2.3172	10.28
2.3302	10.3321
2.3431	10.3838
2.3561	10.4344
2.369	10.4828
2.382	10.5276
2.3949	10.5678
2.4079	10.6019
2.4208	10.6289
2.4338	10.648
2.4467	10.6589
2.4596	10.6619
2.4726	10.6578
2.4855	10.6481
2.4985	10.6349
2.5114	10.6205
2.5244	10.6075
2.5373	10.5984
2.5503	10.5957
2.5632	10.601
2.5762	10.6158
2.5891	10.6406
2.602	10.6755
2.615	10.7199
2.6279	10.7726
2.6409	10.8323
2.6538	10.8977
2.6668	10.9672
2.6797	11.0397
2.6927	11.1142
2.7056	11.1899
2.7186	11.2665
2.7315	11.3436
2.7444	11.4212
2.7574	11.4993
2.7703	11.578
2.7833	11.6573
2.7962	11.7369
2.8092	11.8167
2.8221	11.896
2.8351	11.9739
2.848	12.0496
2.861	12.1219
2.8739	12.1898
2.8868	12.2524
2.8998	12.3094
2.9127	12.361
2.9257	12.4084
2.9386	12.4533
2.9516	12.4985
2.9645	12.5468
2.9775	12.6013
2.9904	12.6645
3.0034	12.7377
3.0163	12.8214
3.0292	12.9146
3.0422	13.0149
3.0551	13.1192
3.0681	13.2239
3.081	13.325
3.094	13.4186
3.1069	13.5018
3.1199	13.5719
3.1328	13.6275
3.1458	13.668
3.1587	13.6935
3.1716	13.7049
3.1846	13.7037
3.1975	13.6917
3.2105	13.6716
3.2234	13.6469
3.2364	13.6217
3.2493	13.6009
3.2623	13.5893
3.2752	13.5914
3.2882	13.6103
3.3011	13.6476
3.314	13.7028
3.327	13.7739
3.3399	13.8575
3.3529	13.9498
3.3658	14.047
3.3788	14.146
3.3917	14.2443
3.4047	14.3404
3.4176	14.4332
3.4306	14.5218
3.4435	14.6055
3.4564	14.6837
3.4694	14.7557
3.4823	14.821
3.4953	14.8793
3.5082	14.931
3.5212	14.9768
3.5341	15.0179
3.5471	15.0558
3.56	15.0922
3.573	15.1289
3.5859	15.1669
3.5988	15.2069
3.6118	15.2483
3.6247	15.2895
3.6377	15.3279
3.6506	15.3598
3.6636	15.3817
3.6765	15.3905
3.6895	15.3844
3.7024	15.3635
3.7154	15.3299
3.7283	15.2876
3.7412	15.2416
3.7542	15.1974
3.7671	15.1596
3.7801	15.1316
3.793	15.1144
3.806	15.1069
3.8189	15.106
3.8319	15.1073
3.8448	15.1062
3.8578	15.0986
3.8707	15.0816
3.8836	15.054
3.8966	15.0161
3.9095	14.9692
3.9225	14.9151
3.9354	14.8551
3.9484	14.7903
3.9613	14.7206
3.9743	14.645
3.9872	14.5619
4.0002	14.4692
4.0131	14.3645
4.0261	14.2451
4.039	14.1083
4.0519	13.9507
4.0649	13.7688
4.0778	13.5588
4.0908	13.3177
4.1037	13.0443
4.1167	12.7398
4.1296	12.409
4.1426	12.0595
4.1555	11.701
4.1685	11.3438
4.1814	10.9967
4.1943	10.6662
4.2073	10.3561
4.2202	10.0669
4.2332	9.7971
4.2461	9.5439
4.2591	9.3042
4.272	9.0752
4.285	8.8551
4.2979	8.6429
4.3109	8.4382
4.3238	8.2408
4.3367	8.0502
4.3497	7.8659
4.3626	7.6867
4.3756	7.5119
4.3885	7.3409
4.4015	7.1739
4.4144	7.0117
4.4274	6.8553
4.4403	6.7067
4.4533	6.5682
4.4662	6.4427
4.4791	6.3333
4.4921	6.2437
4.505	6.1769
4.518	6.1353
4.5309	6.1197
4.5439	6.1296
4.5568	6.1628
4.5698	6.2156
4.5827	6.2831
4.5957	6.3598
4.6086	6.4393
4.6215	6.5152
4.6345	6.5811
4.6474	6.6309
4.6604	6.6592
4.6733	6.6618
4.6863	6.6366
4.6992	6.5833
4.7122	6.5044
4.7251	6.4039
4.7381	6.2873
4.751	6.1602
4.7639	6.0274
4.7769	5.8922
4.7898	5.7555
4.8028	5.616
4.8157	5.4707
4.8287	5.3157
4.8416	5.147
4.8546	4.962
4.8675	4.7597
4.8805	4.5412
4.8934	4.3092
4.9063	4.0674
4.9193	3.8196
4.9322	3.5694
4.9452	3.3195
4.9581	3.0722
4.9711	2.8292
4.984	2.5917
4.997	2.3608
5.0099	2.1374
5.0229	1.9219
5.0358	1.7145
5.0487	1.5153
5.0617	1.3246
5.0746	1.1431
5.0876	0.9721
5.1005	0.8135
5.1135	0.6697
5.1264	0.5431
5.1394	0.4357
5.1523	0.3491
5.1653	0.2836
5.1782	0.2384
5.1911	0.2115
5.2041	0.1998
5.217	0.1993
5.23	0.2057
5.2429	0.2144
5.2559	0.2213
5.2688	0.2229
5.2818	0.2165
5.2947	0.2002
5.3077	0.1729
5.3206	0.1336
5.3335	0.0821
5.3465	0.0179
5.3594	-0.0587
5.3724	-0.1472
5.3853	-0.2465
5.3983	-0.3552
5.4112	-0.4709
5.4242	-0.5914
5.4371	-0.7139
5.4501	-0.8358
5.463	-0.9546
5.4759	-1.0678
5.4889	-1.1733
5.5018	-1.2692
5.5148	-1.3542
5.5277	-1.4272
5.5407	-1.4882
5.5536	-1.5375
5.5666	-1.5763
5.5795	-1.606
5.5925	-1.6282
5.6054	-1.6443
5.6183	-1.6554
5.6313	-1.6618
5.6442	-1.6638
5.6572	-1.6616
5.6701	-1.6554
5.6831	-1.6463
5.696	-1.6358
5.709	-1.6263
5.7219	-1.6209
5.7349	-1.6233
5.7478	-1.6371
5.7607	-1.6653
5.7737	-1.7102
5.7866	-1.7723
5.7996	-1.8507
5.8125	-1.9427
5.8255	-2.0446
5.8384	-2.1521
5.8514	-2.2613
5.8643	-2.3688
5.8773	-2.4726
5.8902	-2.5716
5.9031	-2.6655
5.9161	-2.7542
5.929	-2.8376
5.942	-2.9149
5.9549	-2.9848
5.9679	-3.0453
5.9808	-3.0946
5.9938	-3.1312
6.0067	-3.1545
6.0197	-3.1649
6.0326	-3.164
6.0455	-3.154
6.0585	-3.1373
6.0714	-3.1163
6.0844	-3.0925
6.0973	-3.067
6.1103	-3.0398
6.1232	-3.0107
6.1362	-2.979
6.1491	-2.9442
6.1621	-2.906
6.175	-2.8643
6.1879	-2.8195
6.2009	-2.7723
6.2138	-2.7232
6.2268	-2.6732
6.2397	-2.6227
6.2527	-2.5725
6.2656	-2.5227
6.2786	-2.4736
6.2915	-2.4252
6.3045	-2.3774
6.3174	-2.3302
6.3303	-2.2833
6.3433	-2.2369
6.3562	-2.191
6.3692	-2.1461
6.3821	-2.1029
6.3951	-2.062
6.408	-2.0246
6.421	-1.9916
6.4339	-1.9642
6.4469	-1.9433
6.4598	-1.9304
6.4727	-1.9264
6.4857	-1.9323
6.4986	-1.9485
6.5116	-1.9748
6.5245	-2.0102
6.5375	-2.0526
6.5504	-2.0999
6.5634	-2.1495
6.5763	-2.1994
6.5893	-2.2485
6.6022	-2.2964
6.6151	-2.3436
6.6281	-2.391
6.641	-2.4395
6.654	-2.4895
6.6669	-2.5406
6.6799	-2.5913
6.6928	-2.6396
6.7058	-2.6829
6.7187	-2.7186
6.7317	-2.7447
6.7446	-2.7598
6.7576	-2.7637
6.7705	-2.757
6.7834	-2.7408
6.7964	-2.7171
6.8093	-2.688
6.8223	-2.6559
6.8352	-2.623
6.8482	-2.5909
6.8611	-2.5612
6.8741	-2.5342
6.887	-2.5098
6.9	-2.4871
6.9129	-2.4648
6.9258	-2.4412
6.9388	-2.4149
6.9517	-2.3851
6.9647	-2.3515
6.9776	-2.3144
6.9906	-2.275
7.0035	-2.2347
7.0165	-2.1951
7.0294	-2.1579
7.0424	-2.1246
7.0553	-2.0968
7.0682	-2.0756
7.0812	-2.0617
7.0941	-2.0556
7.1071	-2.0572
7.12	-2.066
7.133	-2.0809
7.1459	-2.1007
7.1589	-2.1246
7.1718	-2.1518
7.1848	-2.1823
7.1977	-2.2167
7.2106	-2.2558
7.2236	-2.3006
7.2365	-2.352
7.2495	-2.4102
7.2624	-2.4751
7.2754	-2.5457
7.2883	-2.6207
7.3013	-2.6982
7.3142	-2.7764
7.3272	-2.853
7.3401	-2.9265
7.353	-2.9954
7.366	-3.0589
7.3789	-3.1164
7.3919	-3.168
7.4048	-3.214
7.4178	-3.2549
7.4307	-3.2915
7.4437	-3.3242
7.4566	-3.3538
7.4696	-3.3803
7.4825	-3.4036
7.4954	-3.4231
7.5084	-3.4378
7.5213	-3.4469
7.5343	-3.4498
7.5472	-3.4465
7.5602	-3.4377
7.5731	-3.4248
7.5861	-3.4094
7.599	-3.3934
7.612	-3.3785
7.6249	-3.3658
7.6378	-3.3557
7.6508	-3.3484
7.6637	-3.343
7.6767	-3.3388
7.6896	-3.3346
7.7026	-3.3297
7.7155	-3.3234
7.7285	-3.3153
7.7414	-3.3054
7.7544	-3.294
7.7673	-3.2813
7.7802	-3.2678
7.7932	-3.2539
7.8061	-3.24
7.8191	-3.2265
7.832	-3.214
7.845	-3.2032
7.8579	-3.1948
7.8709	-3.1897
7.8838	-3.1887
7.8968	-3.1925
7.9097	-3.2016
7.9226	-3.2165
7.9356	-3.2372
7.9485	-3.2636
7.9615	-3.2952
7.9744	-3.3315
7.9874	-3.3715
8.0003	-3.4141
8.0133	-3.4578
8.0262	-3.5011
8.0392	-3.5422
8.0521	-3.5793
8.065	-3.6111
8.078	-3.6363
8.0909	-3.6541
8.1039	-3.664
8.1168	-3.666
8.1298	-3.6608
8.1427	-3.649
8.1557	-3.632
8.1686	-3.6109
8.1816	-3.5873
8.1945	-3.5623
8.2074	-3.5372
8.2204	-3.5129
8.2333	-3.49
8.2463	-3.4689
8.2592	-3.4497
8.2722	-3.4324
8.2851	-3.4167
8.2981	-3.4022
8.311	-3.3885
8.324	-3.3751
8.3369	-3.3616
8.3498	-3.3476
8.3628	-3.3326
8.3757	-3.3165
8.3887	-3.2991
8.4016	-3.2804
8.4146	-3.2605
8.4275	-3.2395
8.4405	-3.2175
8.4534	-3.1948
8.4664	-3.1715
8.4793	-3.1476
8.4922	-3.1232
8.5052	-3.0982
8.5181	-3.0724
8.5311	-3.0455
8.544	-3.0174
8.557	-2.9877
8.5699	-2.9563
8.5829	-2.9234
8.5958	-2.8891
8.6088	-2.8539
8.6217	-2.8188
8.6346	-2.7847
8.6476	-2.7526
8.6605	-2.7236
8.6735	-2.6984
8.6864	-2.6774
8.6994	-2.6605
8.7123	-2.6473
8.7253	-2.6371
8.7382	-2.6291
8.7512	-2.6224
8.7641	-2.6163
8.777	-2.61
8.79	-2.6031
8.8029	-2.5949
8.8159	-2.585
8.8288	-2.5728
8.8418	-2.5579
8.8547	-2.5402
8.8677	-2.5197
8.8806	-2.4966
8.8936	-2.4715
8.9065	-2.445
8.9194	-2.418
8.9324	-2.3911
8.9453	-2.3652
8.9583	-2.3407
8.9712	-2.3181
8.9842	-2.2978
8.9971	-2.28
9.0101	-2.2647
9.023	-2.2519
9.036	-2.2416
9.0489	-2.2335
9.0618	-2.2274
9.0748	-2.2231
9.0877	-2.2202
9.1007	-2.2184
9.1136	-2.2175
9.1266	-2.217
9.1395	-2.2168
9.1525	-2.2165
9.1654	-2.2159
9.1784	-2.2148
9.1913	-2.213
9.2042	-2.2102
9.2172	-2.2064
9.2301	-2.2014
9.2431	-2.1951
9.256	-2.1876
9.269	-2.1791
9.2819	-2.1702
9.2949	-2.1612
9.3078	-2.1531
9.3208	-2.1464
9.3337	-2.1419
9.3466	-2.14
9.3596	-2.141
9.3725	-2.1449
9.3855	-2.1514
9.3984	-2.1603
9.4114	-2.1711
9.4243	-2.1835
9.4373	-2.1971
9.4502	-2.2116
9.4632	-2.2267
9.4761	-2.2419
9.4891	-2.2568
9.502	-2.2707
9.5149	-2.2833
9.5279	-2.2938
9.5408	-2.3021
9.5538	-2.3077
9.5667	-2.3108
9.5797	-2.3114
9.5926	-2.3096
9.6056	-2.3057
9.6185	-2.2997
9.6315	-2.2918
9.6444	-2.2822
9.6573	-2.2711
9.6703	-2.2586
9.6832	-2.2453
9.6962	-2.2315
9.7091	-2.2181
9.7221	-2.2057
9.735	-2.1951
9.748	-2.1869
9.7609	-2.1815
9.7739	-2.1785
9.7868	-2.1777
9.7997	-2.1782
9.8127	-2.1792
9.8256	-2.1796
9.8386	-2.179
9.8515	-2.1768
9.8645	-2.1729
9.8774	-2.1675
9.8904	-2.1607
9.9033	-2.153
9.9163	-2.1445
9.9292	-2.1355
9.9421	-2.126
9.9551	-2.1162
9.968	-2.106
9.981	-2.0953
9.9939	-2.0843
10.0069	-2.0732
10.0198	-2.062
10.0328	-2.051
10.0457	-2.0405
10.0587	-2.0307
10.0716	-2.0217
10.0845	-2.0136
10.0975	-2.0067
10.1104	-2.0009
10.1234	-1.9965
10.1363	-1.9935
10.1493	-1.9918
10.1622	-1.9913
10.1752	-1.9918
10.1881	-1.993
10.2011	-1.9944
10.214	-1.9956
10.2269	-1.9961
10.2399	-1.9956
10.2528	-1.9939
10.2658	-1.9909
10.2787	-1.9867
10.2917	-1.9817
10.3046	-1.976
10.3176	-1.9701
10.3305	-1.9643
10.3435	-1.9591
10.3564	-1.9546
10.3693	-1.9509
10.3823	-1.948
10.3952	-1.9458
10.4082	-1.9439
10.4211	-1.9422
10.4341	-1.9403
10.447	-1.938
10.46	-1.9352
10.4729	-1.9318
10.4859	-1.9281
10.4988	-1.924
10.5117	-1.9197
10.5247	-1.9153
10.5376	-1.9109
10.5506	-1.9063
10.5635	-1.9013
10.5765	-1.8956
10.5894	-1.8891
10.6024	-1.8813
10.6153	-1.8721
10.6283	-1.8614
10.6412	-1.8492
10.6541	-1.8355
10.6671	-1.8206
10.68	-1.8047
10.693	-1.7881
10.7059	-1.7713
10.7189	-1.7546
10.7318	-1.7387
10.7448	-1.7237
10.7577	-1.7103
10.7707	-1.6984
10.7836	-1.6883
10.7965	-1.6798
10.8095	-1.6725
10.8224	-1.666
10.8354	-1.6598
10.8483	-1.6533
10.8613	-1.6463
10.8742	-1.6383
10.8872	-1.6295
10.9001	-1.62
10.9131	-1.6102
10.926	-1.6006
10.9389	-1.5915
10.9519	-1.5833
10.9648	-1.5763
10.9778	-1.5705
10.9907	-1.5659
11.0037	-1.5623
11.0166	-1.5597
11.0296	-1.5578
11.0425	-1.5564
11.0555	-1.5553
11.0684	-1.5544
11.0813	-1.5537
11.0943	-1.5529
11.1072	-1.5521
11.1202	-1.551
11.1331	-1.5495
11.1461	-1.5473
11.159	-1.5442
11.172	-1.5399
11.1849	-1.5344
11.1979	-1.5275
11.2108	-1.5192
11.2237	-1.5097
11.2367	-1.4992
11.2496	-1.4877
11.2626	-1.4754
11.2755	-1.4625
11.2885	-1.4492
11.3014	-1.4354
11.3144	-1.4212
11.3273	-1.4067
11.3403	-1.3921
11.3532	-1.3777
11.3661	-1.3636
11.3791	-1.3505
11.392	-1.3386
11.405	-1.3284
11.4179	-1.3201
11.4309	-1.314
11.4438	-1.3099
11.4568	-1.3079
11.4697	-1.3075
11.4827	-1.3086
11.4956	-1.3106
11.5085	-1.3133
11.5215	-1.3164
11.5344	-1.3197
11.5474	-1.3232
11.5603	-1.3266
11.5733	-1.3301
11.5862	-1.3336
11.5992	-1.337
11.6121	-1.3403
11.6251	-1.3433
11.638	-1.3459
11.6509	-1.3481
11.6639	-1.3496
11.6768	-1.3505
11.6898	-1.3507
11.7027	-1.35
11.7157	-1.3486
11.7286	-1.3464
11.7416	-1.3435
11.7545	-1.3399
11.7675	-1.3358
11.7804	-1.3312
11.7933	-1.3264
11.8063	-1.3215
11.8192	-1.3167
11.8322	-1.3122
11.8451	-1.3083
11.8581	-1.305
11.871	-1.3024
11.884	-1.3005
11.8969	-1.2991
11.9099	-1.2982
11.9228	-1.2973
11.9357	-1.2963
11.9487	-1.295
11.9616	-1.2931
11.9746	-1.2907
11.9875	-1.2876
12.0005	-1.284
12.0134	-1.28
12.0264	-1.2757
12.0393	-1.2713
12.0523	-1.2667
12.0652	-1.2623
12.0782	-1.2579
12.0911	-1.2537
12.104	-1.2496
12.117	-1.2457
12.1299	-1.242
12.1429	-1.2385
12.1558	-1.2353
12.1688	-1.2323
12.1817	-1.2296
12.1947	-1.2273
12.2076	-1.2253
12.2206	-1.2238
12.2335	-1.2227
12.2464	-1.2219
12.2594	-1.2213
12.2723	-1.2206
12.2853	-1.2198
12.2982	-1.2186
12.3112	-1.2167
12.3241	-1.2139
12.3371	-1.2101
12.35	-1.2054
12.363	-1.1995
12.3759	-1.1928
12.3888	-1.1851
12.4018	-1.1768
12.4147	-1.168
12.4277	-1.1587
12.4406	-1.1491
12.4536	-1.1392
12.4665	-1.1292
12.4795	-1.1191
12.4924	-1.1088
12.5054	-1.0985
12.5183	-1.0882
12.5312	-1.078
12.5442	-1.0679
12.5571	-1.058
12.5701	-1.0483
12.583	-1.039
12.596	-1.0301
12.6089	-1.0217
12.6219	-1.014
12.6348	-1.0071
12.6478	-1.0011
12.6607	-0.996
12.6736	-0.9919
12.6866	-0.9888
12.6995	-0.9867
12.7125	-0.9853
12.7254	-0.9846
12.7384	-0.9843
12.7513	-0.9844
12.7643	-0.9844
12.7772	-0.9843
12.7902	-0.9839
12.8031	-0.9828
12.816	-0.9811
12.829	-0.9787
12.8419	-0.9755
12.8549	-0.9716
12.8678	-0.9671
12.8808	-0.9622
12.8937	-0.9571
12.9067	-0.9519
12.9196	-0.9468
12.9326	-0.9418
12.9455	-0.9372
12.9584	-0.9328
12.9714	-0.9287
12.9843	-0.9249
12.9973	-0.9214
13.0102	-0.9181
13.0232	-0.915
13.0361	-0.9122
13.0491	-0.9094
13.062	-0.9067
13.075	-0.904
13.0879	-0.9012
13.1008	-0.8983
13.1138	-0.8951
13.1267	-0.8916
13.1397	-0.8878
13.1526	-0.8839
13.1656	-0.8798
13.1785	-0.8756
13.1915	-0.8716
13.2044	-0.8677
13.2174	-0.8641
13.2303	-0.8607
13.2432	-0.8575
13.2562	-0.8544
13.2691	-0.8513
13.2821	-0.848
13.295	-0.8444
13.308	-0.8404
13.3209	-0.836
13.3339	-0.8311
13.3468	-0.8259
13.3598	-0.8204
13.3727	-0.8145
13.3856	-0.8086
13.3986	-0.8025
13.4115	-0.7964
13.4245	-0.7904
13.4374	-0.7845
13.4504	-0.7787
13.4633	-0.7732
13.4763	-0.7678
13.4892	-0.7627
13.5022	-0.7577
13.5151	-0.753
13.528	-0.7483
13.541	-0.7437
13.5539	-0.7391
13.5669	-0.7344
13.5798	-0.7298
13.5928	-0.7251
13.6057	-0.7203
13.6187	-0.7157
13.6316	-0.711
13.6446	-0.7065
13.6575	-0.702
13.6704	-0.6977
13.6834	-0.6934
13.6963	-0.6893
13.7093	-0.6852
13.7222	-0.6812
13.7352	-0.6773
13.7481	-0.6734
13.7611	-0.6696
13.774	-0.6657
13.787	-0.6617
13.7999	-0.6575
13.8128	-0.6532
13.8258	-0.6487
13.8387	-0.6439
13.8517	-0.6389
13.8646	-0.6338
13.8776	-0.6285
13.8905	-0.623
13.9035	-0.6175
13.9164	-0.612
13.9294	-0.6065
13.9423	-0.6011
13.9552	-0.5957
13.9682	-0.5904
13.9811	-0.5852
13.9941	-0.5801
14.007	-0.5751
14.02	-0.5703
14.0329	-0.5655
14.0459	-0.5608
14.0588	-0.5564
14.0718	-0.5521
14.0847	-0.548
14.0976	-0.5441
14.1106	-0.5404
14.1235	-0.5369
14.1365	-0.5336
14.1494	-0.5305
14.1624	-0.5276
14.1753	-0.5247
14.1883	-0.5218
14.2012	-0.5189
14.2142	-0.5158
14.2271	-0.5127
14.24	-0.5093
14.253	-0.5059
14.2659	-0.5024
14.2789	-0.4989
14.2918	-0.4954
14.3048	-0.4921
14.3177	-0.4888
14.3307	-0.4858
14.3436	-0.4829
14.3566	-0.4802
14.3695	-0.4776
14.3824	-0.4752
14.3954	-0.473
14.4083	-0.4709
14.4213	-0.469
14.4342	-0.4673
14.4472	-0.4658
14.4601	-0.4645
14.4731	-0.4634
14.486	-0.4627
14.499	-0.4622
14.5119	-0.4619
14.5248	-0.4618
14.5378	-0.4619
14.5507	-0.4621
14.5637	-0.4622
14.5766	-0.4624
14.5896	-0.4624
14.6025	-0.4623
14.6155	-0.4621
14.6284	-0.4617
14.6414	-0.4612
14.6543	-0.4605
14.6672	-0.4597
14.6802	-0.4588
14.6931	-0.4577
14.7061	-0.4564
14.719	-0.455
14.732	-0.4533
14.7449	-0.4514
14.7579	-0.4492
14.7708	-0.4468
14.7838	-0.4442
14.7967	-0.4414
14.8097	-0.4384
14.8226	-0.4353
14.8355	-0.4321
14.8485	-0.4288
14.8614	-0.4254
14.8744	-0.4219
14.8873	-0.4184
14.9003	-0.4148
14.9132	-0.4111
14.9262	-0.4073
14.9391	-0.4035
14.9521	-0.3995
14.965	-0.3955
14.9779	-0.3915
14.9909	-0.3875
15.0038	-0.3835
15.0168	-0.3797
15.0297	-0.376
15.0427	-0.3725
15.0556	-0.3693
15.0686	-0.3663
15.0815	-0.3635
15.0945	-0.3609
15.1074	-0.3585
15.1203	-0.3562
15.1333	-0.354
15.1462	-0.3517
15.1592	-0.3493
15.1721	-0.3467
15.1851	-0.3438
15.198	-0.3407
15.211	-0.3374
15.2239	-0.3339
15.2369	-0.3302
15.2498	-0.3265
15.2627	-0.3229
15.2757	-0.3194
15.2886	-0.316
15.3016	-0.3128
15.3145	-0.3098
15.3275	-0.307
15.3404	-0.3043
15.3534	-0.3017
15.3663	-0.2993
15.3793	-0.2969
15.3922	-0.2947
15.4051	-0.2925
15.4181	-0.2903
15.431	-0.2882
15.444	-0.2861
15.4569	-0.2839
15.4699	-0.2817
15.4828	-0.2795
15.4958	-0.2772
15.5087	-0.275
15.5217	-0.2727
15.5346	-0.2706
15.5475	-0.2685
15.5605	-0.2665
15.5734	-0.2645
15.5864	-0.2625
15.5993	-0.2605
15.6123	-0.2584
15.6252	-0.2562
15.6382	-0.2539
15.6511	-0.2514
15.6641	-0.2488
15.677	-0.2461
15.6899	-0.2432
15.7029	-0.2402
15.7158	-0.2371
15.7288	-0.2339
15.7417	-0.2307
15.7547	-0.2275
15.7676	-0.2243
15.7806	-0.2211
15.7935	-0.218
15.8065	-0.2149
15.8194	-0.212
15.8323	-0.2091
15.8453	-0.2064
15.8582	-0.2039
15.8712	-0.2015
15.8841	-0.1993
15.8971	-0.1973
15.91	-0.1954
15.923	-0.1937
15.9359	-0.192
15.9489	-0.1904
15.9618	-0.1888
15.9747	-0.1871
15.9877	-0.1855
16.0006	-0.1838
16.0136	-0.1821
16.0265	-0.1804
16.0395	-0.1786
16.0524	-0.1769
16.0654	-0.1752
16.0783	-0.1735
16.0913	-0.1717
16.1042	-0.1698
16.1171	-0.1678
16.1301	-0.1655
16.143	-0.1631
16.156	-0.1605
16.1689	-0.1578
16.1819	-0.155
16.1948	-0.1521
16.2078	-0.1493
16.2207	-0.1464
16.2337	-0.1435
16.2466	-0.1406
16.2595	-0.1377
16.2725	-0.1347
16.2854	-0.1317
16.2984	-0.1286
16.3113	-0.1254
16.3243	-0.1222
16.3372	-0.1189
16.3502	-0.1158
16.3631	-0.1127
16.3761	-0.1097
16.389	-0.1068
16.4019	-0.104
16.4149	-0.1013
16.4278	-0.0988
16.4408	-0.0963
16.4537	-0.0939
16.4667	-0.0917
16.4796	-0.0895
16.4926	-0.0874
16.5055	-0.0855
16.5185	-0.0836
16.5314	-0.0818
16.5443	-0.0801
16.5573	-0.0785
16.5702	-0.077
16.5832	-0.0755
16.5961	-0.0741
16.6091	-0.0727
16.622	-0.0714
16.635	-0.0701
16.6479	-0.0689
16.6609	-0.0677
16.6738	-0.0665
16.6867	-0.0653
16.6997	-0.0641
16.7126	-0.0627
16.7256	-0.0613
16.7385	-0.0598
16.7515	-0.0582
16.7644	-0.0564
16.7774	-0.0545
16.7903	-0.0525
16.8033	-0.0503
16.8162	-0.0481
16.8291	-0.0457
16.8421	-0.0432
16.855	-0.0407
16.868	-0.0381
16.8809	-0.0356
16.8939	-0.033
16.9068	-0.0305
16.9198	-0.028
16.9327	-0.0256
16.9457	-0.0232
16.9586	-0.021
16.9715	-0.0188
16.9845	-0.0166
16.9974	-0.0145
17.0104	-0.0124
17.0233	-0.0103
17.0363	-0.0083
17.0492	-0.0064
17.0622	-0.0045
17.0751	-0.0027
17.0881	-0.001
17.101	5E-4
17.1139	0.0019
17.1269	0.0032
17.1398	0.0044
17.1528	0.0055
17.1657	0.0065
17.1787	0.0076
17.1916	0.0087
17.2046	0.0099
17.2175	0.0112
17.2305	0.0126
