# Energy(eV) epsilon_R
0	10.3147
0.028	10.3156
0.0561	10.3182
0.0841	10.3227
0.1121	10.3289
0.1402	10.337
0.1682	10.3469
0.1963	10.3586
0.2243	10.3723
0.2523	10.3878
0.2804	10.4054
0.3084	10.4249
0.3364	10.4466
0.3645	10.4703
0.3925	10.4963
0.4206	10.5246
0.4486	10.5553
0.4766	10.5885
0.5047	10.6244
0.5327	10.6629
0.5607	10.7045
0.5888	10.7491
0.6168	10.797
0.6449	10.8485
0.6729	10.9038
0.7009	10.9632
0.729	11.0271
0.757	11.0959
0.785	11.1699
0.8131	11.2497
0.8411	11.3354
0.8692	11.4272
0.8972	11.5242
0.9252	11.6242
0.9533	11.7229
0.9813	11.8144
1.0093	11.8932
1.0374	11.9577
1.0654	12.0113
1.0934	12.0589
1.1215	12.104
1.1495	12.1489
1.1776	12.1981
1.2056	12.2595
1.2336	12.3407
1.2617	12.4446
1.2897	12.5668
1.3177	12.6965
1.3458	12.8209
1.3738	12.9302
1.4019	13.0182
1.4299	13.0824
1.4579	13.1239
1.486	13.1465
1.514	13.1565
1.542	13.1601
1.5701	13.1615
1.5981	13.1611
1.6262	13.1563
1.6542	13.144
1.6822	13.1234
1.7103	13.0955
1.7383	13.0625
1.7663	13.0255
1.7944	12.9837
1.8224	12.9353
1.8505	12.8794
1.8785	12.8153
1.9065	12.7421
1.9346	12.6588
1.9626	12.5645
1.9906	12.4596
2.0187	12.3453
2.0467	12.2233
2.0747	12.094
2.1028	11.9552
2.1308	11.8016
2.1589	11.6259
2.1869	11.4224
2.2149	11.1899
2.243	10.9318
2.271	10.6562
2.299	10.3751
2.3271	10.1033
2.3551	9.8554
2.3832	9.6436
2.4112	9.4757
2.4392	9.3544
2.4673	9.2757
2.4953	9.2307
2.5233	9.2062
2.5514	9.1893
2.5794	9.1701
2.6075	9.1448
2.6355	9.1148
2.6635	9.0852
2.6916	9.0616
2.7196	9.0478
2.7476	9.0438
2.7757	9.0462
2.8037	9.051
2.8318	9.0545
2.8598	9.0541
2.8878	9.0487
2.9159	9.0393
2.9439	9.029
2.9719	9.021
3	9.0168
3.028	9.0146
3.056	9.0115
3.0841	9.0051
3.1121	8.9944
3.1402	8.98
3.1682	8.9635
3.1962	8.9458
3.2243	8.9262
3.2523	8.9027
3.2803	8.8737
3.3084	8.8402
3.3364	8.8066
3.3645	8.7767
3.3925	8.75
3.4205	8.7201
3.4486	8.6794
3.4766	8.6243
3.5046	8.5574
3.5327	8.4849
3.5607	8.411
3.5888	8.3336
3.6168	8.2464
3.6448	8.1438
3.6729	8.0259
3.7009	7.8964
3.7289	7.7569
3.757	7.6035
3.785	7.431
3.8131	7.2408
3.8411	7.0454
3.8691	6.8641
3.8972	6.7132
3.9252	6.5991
3.9532	6.5167
3.9813	6.4534
4.0093	6.3943
4.0373	6.3284
4.0654	6.2525
4.0934	6.1696
4.1215	6.0844
4.1495	5.9997
4.1775	5.9167
4.2056	5.8353
4.2336	5.7543
4.2616	5.6701
4.2897	5.5787
4.3177	5.4782
4.3458	5.3705
4.3738	5.2588
4.4018	5.1454
4.4299	5.0321
4.4579	4.921
4.4859	4.814
4.514	4.7122
4.542	4.6157
4.5701	4.5249
4.5981	4.439
4.6261	4.3551
4.6542	4.2685
4.6822	4.1771
4.7102	4.0828
4.7383	3.9896
4.7663	3.9005
4.7944	3.8168
4.8224	3.7405
4.8504	3.6723
4.8785	3.6104
4.9065	3.5511
4.9345	3.4927
4.9626	3.4362
4.9906	3.3836
5.0186	3.335
5.0467	3.2889
5.0747	3.2424
5.1028	3.191
5.1308	3.1291
5.1588	3.0504
5.1869	2.9473
5.2149	2.8101
5.2429	2.6284
5.271	2.3967
5.299	2.1163
5.3271	1.7953
5.3551	1.4469
5.3831	1.0874
5.4112	0.7307
5.4392	0.3838
5.4672	0.0481
5.4953	-0.2754
5.5233	-0.5852
5.5514	-0.8829
5.5794	-1.1767
5.6074	-1.4756
5.6355	-1.7797
5.6635	-2.0769
5.6915	-2.3512
5.7196	-2.5932
5.7476	-2.8036
5.7757	-2.9889
5.8037	-3.1569
5.8317	-3.3125
5.8598	-3.4566
5.8878	-3.5886
5.9158	-3.7091
5.9439	-3.8194
5.9719	-3.9193
5.9999	-4.008
6.028	-4.0863
6.056	-4.1558
6.0841	-4.2169
6.1121	-4.2694
6.1401	-4.3144
6.1682	-4.3543
6.1962	-4.3926
6.2242	-4.4329
6.2523	-4.4777
6.2803	-4.5279
6.3084	-4.5827
6.3364	-4.6402
6.3644	-4.6971
6.3925	-4.7489
6.4205	-4.7914
6.4485	-4.8239
6.4766	-4.8497
6.5046	-4.8739
6.5327	-4.901
6.5607	-4.9335
6.5887	-4.9733
6.6168	-5.0207
6.6448	-5.0743
6.6728	-5.1298
6.7009	-5.1826
6.7289	-5.2309
6.757	-5.2776
6.785	-5.3277
6.813	-5.3832
6.8411	-5.4414
6.8691	-5.4966
6.8971	-5.5428
6.9252	-5.5764
6.9532	-5.5974
6.9812	-5.6088
7.0093	-5.6153
7.0373	-5.62
7.0654	-5.6222
7.0934	-5.6175
7.1214	-5.6
7.1495	-5.5663
7.1775	-5.5173
7.2055	-5.4583
7.2336	-5.3966
7.2616	-5.3385
7.2897	-5.2862
7.3177	-5.238
7.3457	-5.189
7.3738	-5.1345
7.4018	-5.0736
7.4298	-5.0096
7.4579	-4.9478
7.4859	-4.8927
7.514	-4.8461
7.542	-4.807
7.57	-4.7726
7.5981	-4.7395
7.6261	-4.705
7.6541	-4.6675
7.6822	-4.6265
7.7102	-4.5821
7.7383	-4.5351
7.7663	-4.4865
7.7943	-4.437
7.8224	-4.3877
7.8504	-4.3398
7.8784	-4.2947
7.9065	-4.253
7.9345	-4.2143
7.9625	-4.1774
7.9906	-4.1411
8.0186	-4.1042
8.0467	-4.0655
8.0747	-4.0238
8.1027	-3.978
8.1308	-3.9275
8.1588	-3.8723
8.1868	-3.8135
8.2149	-3.7529
8.2429	-3.6931
8.271	-3.6371
8.299	-3.5872
8.327	-3.5442
8.3551	-3.5067
8.3831	-3.4729
8.4111	-3.441
8.4392	-3.409
8.4672	-3.3754
8.4953	-3.3397
8.5233	-3.3029
8.5513	-3.2669
8.5794	-3.2333
8.6074	-3.2033
8.6354	-3.1775
8.6635	-3.1563
8.6915	-3.1388
8.7196	-3.1234
8.7476	-3.1083
8.7756	-3.0922
8.8037	-3.0747
8.8317	-3.0557
8.8597	-3.0351
8.8878	-3.013
8.9158	-2.9895
8.9438	-2.9648
8.9719	-2.9394
8.9999	-2.9135
9.028	-2.887
9.056	-2.8602
9.084	-2.8331
9.1121	-2.8054
9.1401	-2.7771
9.1681	-2.7482
9.1962	-2.7192
9.2242	-2.6906
9.2523	-2.6622
9.2803	-2.6338
9.3083	-2.6055
9.3364	-2.5775
9.3644	-2.5498
9.3924	-2.5219
9.4205	-2.4929
9.4485	-2.4623
9.4766	-2.4302
9.5046	-2.3969
9.5326	-2.3629
9.5607	-2.3287
9.5887	-2.2942
9.6167	-2.2596
9.6448	-2.2252
9.6728	-2.1916
9.7009	-2.1592
9.7289	-2.1276
9.7569	-2.0965
9.785	-2.0655
9.813	-2.0347
9.841	-2.0041
9.8691	-1.9738
9.8971	-1.9439
9.9251	-1.9146
9.9532	-1.8861
9.9812	-1.8587
10.0093	-1.8323
10.0373	-1.8069
10.0653	-1.7822
10.0934	-1.7577
10.1214	-1.7332
10.1494	-1.7086
10.1775	-1.6839
10.2055	-1.6595
10.2336	-1.6355
10.2616	-1.6121
10.2896	-1.5891
10.3177	-1.5664
10.3457	-1.5439
10.3737	-1.5215
10.4018	-1.4993
10.4298	-1.4772
10.4579	-1.4555
10.4859	-1.4338
10.5139	-1.4122
10.542	-1.3908
10.57	-1.3695
10.598	-1.3483
10.6261	-1.3272
10.6541	-1.306
10.6821	-1.2846
10.7102	-1.2632
10.7382	-1.2417
10.7663	-1.2205
10.7943	-1.1994
10.8223	-1.1787
10.8504	-1.1583
10.8784	-1.1382
10.9064	-1.1185
10.9345	-1.0992
10.9625	-1.0803
10.9906	-1.0618
11.0186	-1.0437
11.0466	-1.026
11.0747	-1.0086
11.1027	-0.9915
11.1307	-0.9748
11.1588	-0.9583
11.1868	-0.9422
11.2149	-0.9263
11.2429	-0.9107
11.2709	-0.8954
11.299	-0.8803
11.327	-0.8654
11.355	-0.8507
11.3831	-0.8363
11.4111	-0.8221
11.4392	-0.8081
11.4672	-0.7943
11.4952	-0.7807
11.5233	-0.7672
11.5513	-0.754
11.5793	-0.7409
11.6074	-0.728
11.6354	-0.7153
11.6634	-0.7027
11.6915	-0.6903
11.7195	-0.678
11.7476	-0.6659
11.7756	-0.6539
11.8036	-0.6421
11.8317	-0.6304
11.8597	-0.6189
11.8877	-0.6075
11.9158	-0.5962
11.9438	-0.5851
11.9719	-0.5741
11.9999	-0.5632
12.0279	-0.5524
12.056	-0.5417
12.084	-0.5312
12.112	-0.5207
12.1401	-0.5104
12.1681	-0.5002
12.1962	-0.4901
12.2242	-0.48
12.2522	-0.4701
12.2803	-0.4603
12.3083	-0.4506
12.3363	-0.441
12.3644	-0.4314
12.3924	-0.422
12.4205	-0.4126
12.4485	-0.4033
12.4765	-0.3941
12.5046	-0.385
12.5326	-0.376
12.5606	-0.367
12.5887	-0.3582
12.6167	-0.3493
12.6447	-0.3406
12.6728	-0.3319
12.7008	-0.3233
12.7289	-0.3148
12.7569	-0.3063
12.7849	-0.2979
12.813	-0.2896
12.841	-0.2813
12.869	-0.273
12.8971	-0.2648
12.9251	-0.2567
12.9532	-0.2486
12.9812	-0.2405
13.0092	-0.2325
13.0373	-0.2245
13.0653	-0.2166
13.0933	-0.2087
13.1214	-0.2008
13.1494	-0.1929
13.1775	-0.185
13.2055	-0.1771
13.2335	-0.1693
13.2616	-0.1614
13.2896	-0.1536
13.3176	-0.1457
13.3457	-0.1378
13.3737	-0.13
13.4018	-0.1221
13.4298	-0.1143
13.4578	-0.1065
13.4859	-0.0988
13.5139	-0.0913
13.5419	-0.084
13.57	-0.0768
13.598	-0.0699
13.626	-0.0631
13.6541	-0.0564
13.6821	-0.0496
13.7102	-0.0428
13.7382	-0.036
13.7662	-0.0292
13.7943	-0.0225
13.8223	-0.016
13.8503	-0.0095
13.8784	-0.0032
13.9064	0.003
13.9345	0.009
13.9625	0.0148
13.9905	0.0201
14.0186	0.0249
14.0466	0.0292
14.0746	0.0329
14.1027	0.0363
14.1307	0.0393
14.1588	0.0421
14.1868	0.0446
14.2148	0.0469
14.2429	0.0492
14.2709	0.0514
14.2989	0.0539
14.327	0.0565
14.355	0.0592
14.3831	0.0622
14.4111	0.0654
14.4391	0.0688
14.4672	0.0725
14.4952	0.0765
14.5232	0.0805
14.5513	0.0844
14.5793	0.088
14.6073	0.0913
14.6354	0.0942
14.6634	0.0966
14.6915	0.0989
14.7195	0.1009
14.7475	0.1031
14.7756	0.1053
14.8036	0.1078
14.8316	0.1104
14.8597	0.113
14.8877	0.1155
14.9158	0.1179
14.9438	0.12
14.9718	0.1218
14.9999	0.1235
15.0279	0.1252
15.0559	0.1268
15.084	0.1286
15.112	0.1304
15.1401	0.1323
15.1681	0.1343
15.1961	0.1364
15.2242	0.1385
15.2522	0.1406
15.2802	0.1426
15.3083	0.1446
15.3363	0.1467
15.3644	0.1489
15.3924	0.1514
15.4204	0.1541
15.4485	0.1569
15.4765	0.1596
15.5045	0.1623
15.5326	0.1649
15.5606	0.1674
15.5886	0.1699
15.6167	0.1724
15.6447	0.1749
15.6728	0.1773
15.7008	0.1797
15.7288	0.1821
15.7569	0.1845
15.7849	0.1871
15.8129	0.1897
15.841	0.1925
15.869	0.1954
15.8971	0.1983
15.9251	0.2011
15.9531	0.2038
15.9812	0.2065
16.0092	0.209
16.0372	0.2115
16.0653	0.2139
16.0933	0.2162
16.1214	0.2185
16.1494	0.2207
16.1774	0.2228
16.2055	0.2249
16.2335	0.2269
16.2615	0.2289
16.2896	0.231
16.3176	0.2331
16.3457	0.2353
16.3737	0.2375
16.4017	0.2397
16.4298	0.242
16.4578	0.2444
16.4858	0.2468
16.5139	0.2493
16.5419	0.252
16.5699	0.2547
16.598	0.2575
16.626	0.2606
16.6541	0.2637
16.6821	0.2668
16.7101	0.27
16.7382	0.273
16.7662	0.276
16.7942	0.2788
16.8223	0.2815
16.8503	0.2841
16.8784	0.2867
16.9064	0.2894
16.9344	0.292
16.9625	0.2947
16.9905	0.2974
17.0185	0.3003
17.0466	0.3032
17.0746	0.3061
17.1027	0.3091
17.1307	0.312
17.1587	0.315
17.1868	0.318
17.2148	0.3209
17.2428	0.3238
17.2709	0.3266
17.2989	0.3294
17.327	0.3322
17.355	0.335
17.383	0.3378
17.4111	0.3406
17.4391	0.3434
17.4671	0.3461
17.4952	0.3488
17.5232	0.3516
17.5512	0.3544
17.5793	0.3573
17.6073	0.3601
17.6354	0.3629
17.6634	0.3657
17.6914	0.3685
17.7195	0.3712
17.7475	0.3739
17.7755	0.3766
17.8036	0.3793
17.8316	0.3819
17.8597	0.3845
17.8877	0.3871
17.9157	0.3897
17.9438	0.3922
17.9718	0.3947
17.9998	0.3971
18.0279	0.3995
18.0559	0.402
18.084	0.4044
18.112	0.4068
18.14	0.4092
18.1681	0.4116
18.1961	0.414
18.2241	0.4163
18.2522	0.4187
18.2802	0.421
18.3083	0.4232
18.3363	0.4254
18.3643	0.4276
18.3924	0.4297
18.4204	0.4319
18.4484	0.434
18.4765	0.4362
18.5045	0.4383
18.5325	0.4405
18.5606	0.4427
18.5886	0.4449
18.6167	0.447
18.6447	0.4492
18.6727	0.4514
18.7008	0.4536
18.7288	0.4557
18.7568	0.4579
18.7849	0.46
18.8129	0.4621
18.841	0.4643
18.869	0.4664
18.897	0.4685
18.9251	0.4705
18.9531	0.4726
18.9811	0.4746
19.0092	0.4767
19.0372	0.4787
19.0653	0.4807
19.0933	0.4826
19.1213	0.4846
19.1494	0.4865
19.1774	0.4885
19.2054	0.4904
19.2335	0.4923
19.2615	0.4942
19.2896	0.496
19.3176	0.4979
19.3456	0.4998
19.3737	0.5016
19.4017	0.5034
19.4297	0.5052
19.4578	0.507
19.4858	0.5088
19.5138	0.5106
19.5419	0.5124
19.5699	0.5141
19.598	0.5159
19.626	0.5176
19.654	0.5193
19.6821	0.5211
19.7101	0.5228
19.7381	0.5245
19.7662	0.5262
19.7942	0.5278
19.8223	0.5295
19.8503	0.5312
19.8783	0.5328
19.9064	0.5344
19.9344	0.5361
19.9624	0.5377
19.9905	0.5393
20.0185	0.5409
20.0466	0.5425
20.0746	0.5441
20.1026	0.5457
20.1307	0.5472
20.1587	0.5488
20.1867	0.5504
20.2148	0.5519
20.2428	0.5534
20.2709	0.555
20.2989	0.5565
20.3269	0.558
20.355	0.5595
20.383	0.561
20.411	0.5625
20.4391	0.564
20.4671	0.5655
20.4951	0.5669
20.5232	0.5684
20.5512	0.5698
20.5793	0.5713
20.6073	0.5727
20.6353	0.5742
20.6634	0.5756
20.6914	0.577
20.7194	0.5784
20.7475	0.5798
20.7755	0.5812
20.8036	0.5826
20.8316	0.584
20.8596	0.5854
20.8877	0.5867
20.9157	0.5881
20.9437	0.5895
20.9718	0.5908
20.9998	0.5922
21.0279	0.5935
21.0559	0.5948
21.0839	0.5962
21.112	0.5975
21.14	0.5988
21.168	0.6001
21.1961	0.6014
21.2241	0.6027
21.2522	0.604
21.2802	0.6053
21.3082	0.6066
21.3363	0.6078
21.3643	0.6091
21.3923	0.6104
21.4204	0.6116
21.4484	0.6129
21.4764	0.6141
21.5045	0.6153
21.5325	0.6166
21.5606	0.6178
21.5886	0.619
21.6166	0.6202
21.6447	0.6214
21.6727	0.6227
21.7007	0.6239
21.7288	0.6251
21.7568	0.6262
21.7849	0.6274
21.8129	0.6286
21.8409	0.6298
21.869	0.631
21.897	0.6321
21.925	0.6333
21.9531	0.6344
21.9811	0.6356
22.0092	0.6367
22.0372	0.6379
22.0652	0.639
22.0933	0.6401
22.1213	0.6413
22.1493	0.6424
22.1774	0.6435
22.2054	0.6446
22.2335	0.6457
22.2615	0.6468
22.2895	0.6479
22.3176	0.649
22.3456	0.6501
22.3736	0.6512
22.4017	0.6523
22.4297	0.6533
22.4577	0.6544
22.4858	0.6555
22.5138	0.6565
22.5419	0.6576
22.5699	0.6586
22.5979	0.6597
22.626	0.6607
22.654	0.6618
22.682	0.6628
22.7101	0.6638
22.7381	0.6649
22.7662	0.6659
22.7942	0.6669
22.8222	0.6679
22.8503	0.6689
22.8783	0.67
22.9063	0.671
22.9344	0.672
22.9624	0.673
22.9905	0.6739
23.0185	0.6749
23.0465	0.6759
23.0746	0.6769
23.1026	0.6779
23.1306	0.6788
23.1587	0.6798
23.1867	0.6808
23.2148	0.6817
23.2428	0.6827
23.2708	0.6837
23.2989	0.6846
23.3269	0.6856
23.3549	0.6865
23.383	0.6874
23.411	0.6884
23.439	0.6893
23.4671	0.6902
23.4951	0.6912
23.5232	0.6921
23.5512	0.693
23.5792	0.6939
23.6073	0.6948
23.6353	0.6957
23.6633	0.6966
23.6914	0.6975
23.7194	0.6984
23.7475	0.6993
23.7755	0.7002
23.8035	0.7011
23.8316	0.702
23.8596	0.7029
23.8876	0.7038
23.9157	0.7046
23.9437	0.7055
23.9718	0.7064
23.9998	0.7073
24.0278	0.7081
24.0559	0.709
24.0839	0.7098
24.1119	0.7107
24.14	0.7115
24.168	0.7124
24.1961	0.7132
24.2241	0.7141
24.2521	0.7149
24.2802	0.7157
24.3082	0.7166
24.3362	0.7174
24.3643	0.7182
24.3923	0.7191
24.4203	0.7199
24.4484	0.7207
24.4764	0.7215
24.5045	0.7223
24.5325	0.7231
24.5605	0.7239
24.5886	0.7248
24.6166	0.7256
24.6446	0.7264
24.6727	0.7271
24.7007	0.7279
24.7288	0.7287
24.7568	0.7295
24.7848	0.7303
24.8129	0.7311
24.8409	0.7319
24.8689	0.7326
24.897	0.7334
24.925	0.7342
24.9531	0.735
24.9811	0.7357
25.0091	0.7365
25.0372	0.7373
25.0652	0.738
25.0932	0.7388
25.1213	0.7395
25.1493	0.7403
25.1774	0.741
25.2054	0.7418
25.2334	0.7425
25.2615	0.7433
25.2895	0.744
25.3175	0.7447
25.3456	0.7455
25.3736	0.7462
25.4016	0.7469
25.4297	0.7477
25.4577	0.7484
25.4858	0.7491
25.5138	0.7498
25.5418	0.7505
25.5699	0.7513
25.5979	0.752
25.6259	0.7527
25.654	0.7534
25.682	0.7541
25.7101	0.7548
25.7381	0.7555
25.7661	0.7562
25.7942	0.7569
25.8222	0.7576
25.8502	0.7583
25.8783	0.759
25.9063	0.7597
25.9344	0.7604
25.9624	0.7611
25.9904	0.7617
26.0185	0.7624
26.0465	0.7631
26.0745	0.7638
26.1026	0.7644
26.1306	0.7651
26.1587	0.7658
26.1867	0.7665
26.2147	0.7671
26.2428	0.7678
26.2708	0.7685
26.2988	0.7691
26.3269	0.7698
26.3549	0.7704
26.3829	0.7711
26.411	0.7717
26.439	0.7724
26.4671	0.773
26.4951	0.7737
26.5231	0.7743
26.5512	0.775
26.5792	0.7756
26.6072	0.7763
26.6353	0.7769
26.6633	0.7775
26.6914	0.7782
26.7194	0.7788
26.7474	0.7794
26.7755	0.7801
26.8035	0.7807
26.8315	0.7813
26.8596	0.7819
26.8876	0.7826
26.9157	0.7832
26.9437	0.7838
26.9717	0.7844
26.9998	0.785
27.0278	0.7856
27.0558	0.7862
27.0839	0.7869
27.1119	0.7875
27.14	0.7881
27.168	0.7887
27.196	0.7893
27.2241	0.7899
27.2521	0.7905
27.2801	0.7911
27.3082	0.7917
27.3362	0.7923
27.3642	0.7929
27.3923	0.7935
27.4203	0.794
27.4484	0.7946
27.4764	0.7952
27.5044	0.7958
27.5325	0.7964
27.5605	0.797
27.5885	0.7976
27.6166	0.7981
27.6446	0.7987
27.6727	0.7993
27.7007	0.7999
27.7287	0.8004
27.7568	0.801
27.7848	0.8016
27.8128	0.8021
27.8409	0.8027
27.8689	0.8033
27.897	0.8038
27.925	0.8044
27.953	0.805
27.9811	0.8055
28.0091	0.8061
28.0371	0.8066
28.0652	0.8072
28.0932	0.8077
28.1213	0.8083
28.1493	0.8089
28.1773	0.8094
28.2054	0.81
28.2334	0.8105
28.2614	0.811
28.2895	0.8116
28.3175	0.8121
28.3455	0.8127
28.3736	0.8132
28.4016	0.8138
28.4297	0.8143
28.4577	0.8148
28.4857	0.8154
28.5138	0.8159
28.5418	0.8164
28.5698	0.817
28.5979	0.8175
28.6259	0.818
28.654	0.8186
28.682	0.8191
28.71	0.8196
28.7381	0.8201
28.7661	0.8207
28.7941	0.8212
28.8222	0.8217
28.8502	0.8222
28.8783	0.8227
28.9063	0.8233
28.9343	0.8238
28.9624	0.8243
28.9904	0.8248
29.0184	0.8253
29.0465	0.8258
29.0745	0.8263
29.1026	0.8269
29.1306	0.8274
29.1586	0.8279
29.1867	0.8284
29.2147	0.8289
29.2427	0.8294
29.2708	0.8299
29.2988	0.8304
29.3268	0.8309
29.3549	0.8314
29.3829	0.8319
29.411	0.8324
29.439	0.8329
29.467	0.8334
29.4951	0.8339
29.5231	0.8344
29.5511	0.8349
29.5792	0.8354
29.6072	0.8359
29.6353	0.8363
29.6633	0.8368
29.6913	0.8373
29.7194	0.8378
29.7474	0.8383
29.7754	0.8388
29.8035	0.8393
29.8315	0.8398
29.8596	0.8402
29.8876	0.8407
29.9156	0.8412
29.9437	0.8417
29.9717	0.8422
29.9997	0.8426
30.0278	0.8431
30.0558	0.8436
30.0839	0.8441
30.1119	0.8445
30.1399	0.845
30.168	0.8455
30.196	0.846
30.224	0.8464
30.2521	0.8469
30.2801	0.8474
30.3081	0.8478
30.3362	0.8483
30.3642	0.8488
30.3923	0.8492
30.4203	0.8497
30.4483	0.8502
30.4764	0.8506
30.5044	0.8511
30.5324	0.8516
30.5605	0.852
30.5885	0.8525
30.6166	0.8529
30.6446	0.8534
30.6726	0.8539
30.7007	0.8543
30.7287	0.8548
30.7567	0.8552
30.7848	0.8557
30.8128	0.8561
30.8409	0.8566
30.8689	0.8571
30.8969	0.8575
30.925	0.858
30.953	0.8584
30.981	0.8589
31.0091	0.8593
31.0371	0.8598
31.0651	0.8602
31.0932	0.8607
31.1212	0.8611
31.1493	0.8616
31.1773	0.862
31.2053	0.8625
31.2334	0.8629
31.2614	0.8633
31.2894	0.8638
31.3175	0.8642
31.3455	0.8647
31.3736	0.8651
31.4016	0.8656
31.4296	0.866
31.4577	0.8664
31.4857	0.8669
31.5137	0.8673
31.5418	0.8678
31.5698	0.8682
31.5979	0.8686
31.6259	0.8691
31.6539	0.8695
31.682	0.87
31.71	0.8704
31.738	0.8708
31.7661	0.8713
31.7941	0.8717
31.8222	0.8721
31.8502	0.8726
31.8782	0.873
31.9063	0.8734
31.9343	0.8739
31.9623	0.8743
31.9904	0.8747
32.0184	0.8752
32.0464	0.8756
32.0745	0.876
32.1025	0.8765
32.1306	0.8769
32.1586	0.8773
32.1866	0.8777
32.2147	0.8782
32.2427	0.8786
32.2707	0.879
32.2988	0.8795
32.3268	0.8799
32.3549	0.8803
32.3829	0.8807
32.4109	0.8812
32.439	0.8816
32.467	0.882
32.495	0.8824
32.5231	0.8829
32.5511	0.8833
32.5792	0.8837
32.6072	0.8841
32.6352	0.8846
32.6633	0.885
32.6913	0.8854
32.7193	0.8858
32.7474	0.8863
32.7754	0.8867
32.8035	0.8871
32.8315	0.8875
32.8595	0.888
32.8876	0.8884
32.9156	0.8888
32.9436	0.8892
32.9717	0.8896
32.9997	0.8901
33.0277	0.8905
33.0558	0.8909
33.0838	0.8913
33.1119	0.8918
33.1399	0.8922
33.1679	0.8926
33.196	0.893
33.224	0.8934
33.252	0.8939
33.2801	0.8943
33.3081	0.8947
33.3362	0.8951
33.3642	0.8955
33.3922	0.896
33.4203	0.8964
33.4483	0.8968
33.4763	0.8972
33.5044	0.8976
33.5324	0.8981
33.5605	0.8985
33.5885	0.8989
33.6165	0.8993
33.6446	0.8997
33.6726	0.9002
33.7006	0.9006
33.7287	0.901
33.7567	0.9014
33.7848	0.9018
33.8128	0.9023
33.8408	0.9027
33.8689	0.9031
33.8969	0.9035
33.9249	0.9039
33.953	0.9044
33.981	0.9048
34.009	0.9052
34.0371	0.9056
34.0651	0.9061
34.0932	0.9065
34.1212	0.9069
34.1492	0.9073
34.1773	0.9077
34.2053	0.9082
34.2333	0.9086
34.2614	0.909
34.2894	0.9094
34.3175	0.9099
34.3455	0.9103
34.3735	0.9107
34.4016	0.9111
34.4296	0.9115
34.4576	0.912
34.4857	0.9124
34.5137	0.9128
34.5418	0.9132
34.5698	0.9137
34.5978	0.9141
34.6259	0.9145
34.6539	0.915
34.6819	0.9154
34.71	0.9158
34.738	0.9162
34.7661	0.9167
34.7941	0.9171
34.8221	0.9175
34.8502	0.918
34.8782	0.9184
34.9062	0.9188
34.9343	0.9193
34.9623	0.9197
34.9903	0.9201
35.0184	0.9205
35.0464	0.921
35.0745	0.9214
35.1025	0.9219
35.1305	0.9223
35.1586	0.9227
35.1866	0.9232
35.2146	0.9236
35.2427	0.924
35.2707	0.9245
35.2988	0.9249
35.3268	0.9254
35.3548	0.9258
35.3829	0.9262
35.4109	0.9267
35.4389	0.9271
35.467	0.9276
35.495	0.928
35.5231	0.9285
35.5511	0.9289
35.5791	0.9293
35.6072	0.9298
35.6352	0.9302
35.6632	0.9307
35.6913	0.9311
35.7193	0.9316
35.7474	0.932
35.7754	0.9325
35.8034	0.9329
35.8315	0.9334
35.8595	0.9339
35.8875	0.9343
35.9156	0.9348
35.9436	0.9352
35.9716	0.9357
35.9997	0.9361
36.0277	0.9366
36.0558	0.9371
36.0838	0.9375
36.1118	0.938
36.1399	0.9385
36.1679	0.9389
36.1959	0.9394
36.224	0.9399
36.252	0.9403
36.2801	0.9408
36.3081	0.9413
36.3361	0.9418
36.3642	0.9422
36.3922	0.9427
36.4202	0.9432
36.4483	0.9437
36.4763	0.9442
36.5044	0.9446
36.5324	0.9451
36.5604	0.9456
36.5885	0.9461
36.6165	0.9466
36.6445	0.9471
36.6726	0.9476
36.7006	0.9481
36.7287	0.9486
36.7567	0.9491
36.7847	0.9496
36.8128	0.9501
36.8408	0.9506
36.8688	0.9511
36.8969	0.9516
36.9249	0.9521
36.9529	0.9526
36.981	0.9531
37.009	0.9536
37.0371	0.9541
37.0651	0.9547
37.0931	0.9552
37.1212	0.9557
37.1492	0.9562
37.1772	0.9567
37.2053	0.9573
37.2333	0.9578
37.2614	0.9583
37.2894	0.9589
37.3174	0.9594
37.3455	0.9599
37.3735	0.9605
37.4015	0.961
37.4296	0.9616
37.4576	0.9621
37.4857	0.9627
37.5137	0.9632
37.5417	0.9638
37.5698	0.9643
37.5978	0.9649
37.6258	0.9655
37.6539	0.966
37.6819	0.9666
37.71	0.9672
37.738	0.9677
37.766	0.9683
37.7941	0.9689
37.8221	0.9695
