# Energy(eV) epsilon_R
0	8.0126
0.0129	8.0128
0.0259	8.0134
0.0388	8.0143
0.0518	8.0156
0.0647	8.0172
0.0777	8.0192
0.0906	8.0216
0.1036	8.0244
0.1165	8.0275
0.1295	8.0311
0.1424	8.035
0.1553	8.0393
0.1683	8.0441
0.1812	8.0492
0.1942	8.0548
0.2071	8.0608
0.2201	8.0672
0.233	8.0741
0.246	8.0814
0.2589	8.0892
0.2719	8.0976
0.2848	8.1064
0.2977	8.1157
0.3107	8.1256
0.3236	8.136
0.3366	8.147
0.3495	8.1586
0.3625	8.1708
0.3754	8.1837
0.3884	8.1972
0.4013	8.2115
0.4143	8.2265
0.4272	8.2423
0.4401	8.2589
0.4531	8.2764
0.466	8.2948
0.479	8.3141
0.4919	8.3344
0.5049	8.3559
0.5178	8.3784
0.5308	8.4022
0.5437	8.4273
0.5567	8.4537
0.5696	8.4815
0.5825	8.5109
0.5955	8.5419
0.6084	8.5746
0.6214	8.6091
0.6343	8.6455
0.6473	8.6839
0.6602	8.7243
0.6732	8.7666
0.6861	8.811
0.6991	8.8571
0.712	8.9047
0.7249	8.9533
0.7379	9.0022
0.7508	9.0499
0.7638	9.0949
0.7767	9.1344
0.7897	9.165
0.8026	9.1823
0.8156	9.1807
0.8285	9.154
0.8415	9.0958
0.8544	9.0006
0.8673	8.865
0.8803	8.6887
0.8932	8.4762
0.9062	8.2363
0.9191	7.9818
0.9321	7.7278
0.945	7.4893
0.958	7.2791
0.9709	7.106
0.9839	6.9742
0.9968	6.8837
1.0097	6.8309
1.0227	6.8103
1.0356	6.8155
1.0486	6.8403
1.0615	6.8793
1.0745	6.9279
1.0874	6.9827
1.1004	7.0412
1.1133	7.1017
1.1263	7.1628
1.1392	7.2239
1.1521	7.2845
1.1651	7.3443
1.178	7.4031
1.191	7.461
1.2039	7.518
1.2169	7.5743
1.2298	7.6298
1.2428	7.6848
1.2557	7.7394
1.2687	7.7938
1.2816	7.8481
1.2945	7.9025
1.3075	7.9571
1.3204	8.0121
1.3334	8.0677
1.3463	8.124
1.3593	8.1813
1.3722	8.2396
1.3852	8.2992
1.3981	8.3601
1.4111	8.4227
1.424	8.4869
1.437	8.553
1.4499	8.6211
1.4628	8.6912
1.4758	8.7632
1.4887	8.8371
1.5017	8.9124
1.5146	8.9887
1.5276	9.0649
1.5405	9.1397
1.5535	9.211
1.5664	9.2757
1.5794	9.3301
1.5923	9.3691
1.6052	9.3867
1.6182	9.3763
1.6311	9.331
1.6441	9.2448
1.657	9.1137
1.67	8.9365
1.6829	8.7159
1.6959	8.4584
1.7088	8.1747
1.7218	7.878
1.7347	7.583
1.7476	7.3045
1.7606	7.055
1.7735	6.8444
1.7865	6.6783
1.7994	6.5585
1.8124	6.4833
1.8253	6.4482
1.8383	6.447
1.8512	6.473
1.8642	6.5195
1.8771	6.5808
1.89	6.6522
1.903	6.7298
1.9159	6.8109
1.9289	6.8935
1.9418	6.9761
1.9548	7.058
1.9677	7.1384
1.9807	7.217
1.9936	7.2937
2.0066	7.3685
2.0195	7.4413
2.0324	7.5123
2.0454	7.5818
2.0583	7.6499
2.0713	7.7169
2.0842	7.783
2.0972	7.8483
2.1101	7.9131
2.1231	7.9774
2.136	8.0413
2.149	8.1048
2.1619	8.1681
2.1748	8.2312
2.1878	8.2943
2.2007	8.3575
2.2137	8.4211
2.2266	8.4854
2.2396	8.5504
2.2525	8.6165
2.2655	8.6837
2.2784	8.7522
2.2914	8.8219
2.3043	8.8928
2.3172	8.9647
2.3302	9.0374
2.3431	9.1105
2.3561	9.1834
2.369	9.2554
2.382	9.3257
2.3949	9.3931
2.4079	9.4567
2.4208	9.5153
2.4338	9.5683
2.4467	9.6151
2.4596	9.6559
2.4726	9.6915
2.4855	9.7233
2.4985	9.7531
2.5114	9.783
2.5244	9.8152
2.5373	9.8514
2.5503	9.8929
2.5632	9.94
2.5762	9.9927
2.5891	10.0495
2.602	10.1086
2.615	10.1671
2.6279	10.2216
2.6409	10.2684
2.6538	10.3039
2.6668	10.3254
2.6797	10.3309
2.6927	10.3202
2.7056	10.2945
2.7186	10.2567
2.7315	10.211
2.7444	10.1626
2.7574	10.1171
2.7703	10.08
2.7833	10.0558
2.7962	10.0477
2.8092	10.0572
2.8221	10.0835
2.8351	10.1245
2.848	10.1762
2.861	10.2342
2.8739	10.2936
2.8868	10.3506
2.8998	10.4024
2.9127	10.4479
2.9257	10.488
2.9386	10.525
2.9516	10.5621
2.9645	10.6031
2.9775	10.651
2.9904	10.7078
3.0034	10.7736
3.0163	10.8467
3.0292	10.9237
3.0422	11.0003
3.0551	11.0717
3.0681	11.1335
3.081	11.1825
3.094	11.2162
3.1069	11.2337
3.1199	11.2351
3.1328	11.2212
3.1458	11.1935
3.1587	11.1541
3.1716	11.1057
3.1846	11.0516
3.1975	10.9955
3.2105	10.9419
3.2234	10.8951
3.2364	10.8596
3.2493	10.8391
3.2623	10.8365
3.2752	10.8536
3.2882	10.8908
3.3011	10.9469
3.314	11.0194
3.327	11.1043
3.3399	11.1968
3.3529	11.2912
3.3658	11.3811
3.3788	11.4602
3.3917	11.5224
3.4047	11.562
3.4176	11.5745
3.4306	11.5565
3.4435	11.5062
3.4564	11.4238
3.4694	11.3111
3.4823	11.1716
3.4953	11.0105
3.5082	10.8337
3.5212	10.6483
3.5341	10.4614
3.5471	10.2803
3.56	10.1118
3.573	9.9615
3.5859	9.834
3.5988	9.7314
3.6118	9.6544
3.6247	9.6014
3.6377	9.5692
3.6506	9.5533
3.6636	9.5485
3.6765	9.549
3.6895	9.5495
3.7024	9.545
3.7154	9.5312
3.7283	9.5046
3.7412	9.4628
3.7542	9.4043
3.7671	9.3287
3.7801	9.237
3.793	9.1316
3.806	9.0164
3.8189	8.8967
3.8319	8.7781
3.8448	8.6664
3.8578	8.5661
3.8707	8.4802
3.8836	8.4091
3.8966	8.3514
3.9095	8.304
3.9225	8.263
3.9354	8.2247
3.9484	8.186
3.9613	8.1444
3.9743	8.0987
3.9872	8.0475
4.0002	7.9897
4.0131	7.9235
4.0261	7.8471
4.039	7.7584
4.0519	7.6554
4.0649	7.537
4.0778	7.4024
4.0908	7.2524
4.1037	7.0883
4.1167	6.9125
4.1296	6.7282
4.1426	6.539
4.1555	6.3484
4.1685	6.1597
4.1814	5.9757
4.1943	5.7985
4.2073	5.6294
4.2202	5.4694
4.2332	5.3191
4.2461	5.1784
4.2591	5.0472
4.272	4.9245
4.285	4.8092
4.2979	4.7003
4.3109	4.5969
4.3238	4.4992
4.3367	4.4085
4.3497	4.3269
4.3626	4.2571
4.3756	4.2016
4.3885	4.1623
4.4015	4.1398
4.4144	4.1334
4.4274	4.1414
4.4403	4.1611
4.4533	4.1897
4.4662	4.2245
4.4791	4.2632
4.4921	4.3041
4.505	4.3457
4.518	4.3872
4.5309	4.4273
4.5439	4.4646
4.5568	4.4973
4.5698	4.5231
4.5827	4.5399
4.5957	4.5457
4.6086	4.5392
4.6215	4.52
4.6345	4.4882
4.6474	4.4442
4.6604	4.3886
4.6733	4.3216
4.6863	4.2434
4.6992	4.1541
4.7122	4.0543
4.7251	3.9449
4.7381	3.8277
4.751	3.7045
4.7639	3.5778
4.7769	3.4498
4.7898	3.3226
4.8028	3.1979
4.8157	3.0771
4.8287	2.9615
4.8416	2.8525
4.8546	2.7514
4.8675	2.66
4.8805	2.5801
4.8934	2.5132
4.9063	2.4603
4.9193	2.4219
4.9322	2.3973
4.9452	2.3853
4.9581	2.3839
4.9711	2.3907
4.984	2.4027
4.997	2.4167
5.0099	2.4297
5.0229	2.4386
5.0358	2.4414
5.0487	2.4367
5.0617	2.4245
5.0746	2.4055
5.0876	2.3817
5.1005	2.3554
5.1135	2.3292
5.1264	2.3059
5.1394	2.2881
5.1523	2.2779
5.1653	2.2771
5.1782	2.2868
5.1911	2.3074
5.2041	2.3385
5.217	2.3787
5.23	2.4258
5.2429	2.4768
5.2559	2.5282
5.2688	2.5767
5.2818	2.6196
5.2947	2.655
5.3077	2.6821
5.3206	2.7009
5.3335	2.7118
5.3465	2.7154
5.3594	2.712
5.3724	2.7021
5.3853	2.6862
5.3983	2.6652
5.4112	2.6405
5.4242	2.6141
5.4371	2.5885
5.4501	2.5662
5.463	2.5496
5.4759	2.541
5.4889	2.5422
5.5018	2.5549
5.5148	2.5805
5.5277	2.6203
5.5407	2.6752
5.5536	2.7458
5.5666	2.8322
5.5795	2.9336
5.5925	3.0488
5.6054	3.1756
5.6183	3.3112
5.6313	3.4524
5.6442	3.5956
5.6572	3.737
5.6701	3.873
5.6831	4.0001
5.696	4.1152
5.709	4.2155
5.7219	4.2989
5.7349	4.3639
5.7478	4.4099
5.7607	4.4368
5.7737	4.4458
5.7866	4.4387
5.7996	4.4177
5.8125	4.3857
5.8255	4.3451
5.8384	4.2982
5.8514	4.2464
5.8643	4.1906
5.8773	4.1312
5.8902	4.068
5.9031	4.0015
5.9161	3.9319
5.929	3.8605
5.942	3.7892
5.9549	3.72
5.9679	3.6557
5.9808	3.5986
5.9938	3.5507
6.0067	3.5129
6.0197	3.4856
6.0326	3.468
6.0455	3.4588
6.0585	3.4559
6.0714	3.4568
6.0844	3.4588
6.0973	3.4592
6.1103	3.4552
6.1232	3.4444
6.1362	3.4248
6.1491	3.3953
6.1621	3.3558
6.175	3.3067
6.1879	3.2495
6.2009	3.1863
6.2138	3.1192
6.2268	3.0505
6.2397	2.9827
6.2527	2.9175
6.2656	2.8567
6.2786	2.8015
6.2915	2.7532
6.3045	2.7122
6.3174	2.6788
6.3303	2.6526
6.3433	2.6324
6.3562	2.6161
6.3692	2.6002
6.3821	2.5803
6.3951	2.5513
6.408	2.5076
6.421	2.4444
6.4339	2.3576
6.4469	2.2448
6.4598	2.1052
6.4727	1.9394
6.4857	1.7494
6.4986	1.5381
6.5116	1.3091
6.5245	1.067
6.5375	0.8165
6.5504	0.5631
6.5634	0.3121
6.5763	0.0683
6.5893	-0.1645
6.6022	-0.3838
6.6151	-0.5888
6.6281	-0.7796
6.641	-0.9578
6.654	-1.125
6.6669	-1.2832
6.6799	-1.4335
6.6928	-1.5767
6.7058	-1.713
6.7187	-1.8419
6.7317	-1.9628
6.7446	-2.0746
6.7576	-2.1761
6.7705	-2.2657
6.7834	-2.3419
6.7964	-2.4031
6.8093	-2.4478
6.8223	-2.4753
6.8352	-2.486
6.8482	-2.4813
6.8611	-2.4639
6.8741	-2.4373
6.887	-2.4057
6.9	-2.3734
6.9129	-2.3445
6.9258	-2.323
6.9388	-2.3122
6.9517	-2.3152
6.9647	-2.334
6.9776	-2.3697
6.9906	-2.4218
7.0035	-2.4877
7.0165	-2.5634
7.0294	-2.6433
7.0424	-2.7212
7.0553	-2.7911
7.0682	-2.8485
7.0812	-2.8907
7.0941	-2.9172
7.1071	-2.93
7.12	-2.9322
7.133	-2.928
7.1459	-2.922
7.1589	-2.9179
7.1718	-2.919
7.1848	-2.9275
7.1977	-2.9442
7.2106	-2.9693
7.2236	-3.0019
7.2365	-3.0402
7.2495	-3.0823
7.2624	-3.1256
7.2754	-3.1679
7.2883	-3.2072
7.3013	-3.2421
7.3142	-3.272
7.3272	-3.2967
7.3401	-3.3167
7.353	-3.3327
7.366	-3.3451
7.3789	-3.3537
7.3919	-3.3579
7.4048	-3.3566
7.4178	-3.3484
7.4307	-3.3325
7.4437	-3.3086
7.4566	-3.2772
7.4696	-3.2401
7.4825	-3.1993
7.4954	-3.1576
7.5084	-3.1175
7.5213	-3.0812
7.5343	-3.0505
7.5472	-3.0265
7.5602	-3.0099
7.5731	-3.0007
7.5861	-2.9988
7.599	-3.0039
7.612	-3.0154
7.6249	-3.0329
7.6378	-3.0557
7.6508	-3.083
7.6637	-3.1139
7.6767	-3.1468
7.6896	-3.18
7.7026	-3.2113
7.7155	-3.2385
7.7285	-3.2594
7.7414	-3.2721
7.7544	-3.2754
7.7673	-3.2688
7.7802	-3.2525
7.7932	-3.2272
7.8061	-3.1941
7.8191	-3.1547
7.832	-3.1106
7.845	-3.063
7.8579	-3.0132
7.8709	-2.9622
7.8838	-2.9107
7.8968	-2.8593
7.9097	-2.8084
7.9226	-2.7585
7.9356	-2.7102
7.9485	-2.6643
7.9615	-2.6217
7.9744	-2.5834
7.9874	-2.5502
8.0003	-2.5229
8.0133	-2.5016
8.0262	-2.486
8.0392	-2.4752
8.0521	-2.468
8.065	-2.4626
8.078	-2.4573
8.0909	-2.4503
8.1039	-2.4403
8.1168	-2.426
8.1298	-2.4069
8.1427	-2.3828
8.1557	-2.3539
8.1686	-2.3209
8.1816	-2.2847
8.1945	-2.2464
8.2074	-2.2073
8.2204	-2.1687
8.2333	-2.1317
8.2463	-2.0974
8.2592	-2.0666
8.2722	-2.0396
8.2851	-2.0167
8.2981	-1.9973
8.311	-1.9809
8.324	-1.9662
8.3369	-1.9521
8.3498	-1.9372
8.3628	-1.9204
8.3757	-1.9009
8.3887	-1.878
8.4016	-1.8518
8.4146	-1.8226
8.4275	-1.7911
8.4405	-1.7581
8.4534	-1.7245
8.4664	-1.6914
8.4793	-1.6594
8.4922	-1.6293
8.5052	-1.6015
8.5181	-1.5761
8.5311	-1.5533
8.544	-1.5328
8.557	-1.5146
8.5699	-1.4986
8.5829	-1.4848
8.5958	-1.4738
8.6088	-1.4663
8.6217	-1.4635
8.6346	-1.4667
8.6476	-1.477
8.6605	-1.4953
8.6735	-1.5217
8.6864	-1.5553
8.6994	-1.5944
8.7123	-1.6361
8.7253	-1.6774
8.7382	-1.715
8.7512	-1.7461
8.7641	-1.7685
8.777	-1.7809
8.79	-1.783
8.8029	-1.775
8.8159	-1.7578
8.8288	-1.7325
8.8418	-1.7005
8.8547	-1.6633
8.8677	-1.6222
8.8806	-1.5788
8.8936	-1.5347
8.9065	-1.4914
8.9194	-1.4501
8.9324	-1.4121
8.9453	-1.378
8.9583	-1.3484
8.9712	-1.3235
8.9842	-1.303
8.9971	-1.2867
9.0101	-1.2738
9.023	-1.2638
9.036	-1.2557
9.0489	-1.2488
9.0618	-1.242
9.0748	-1.2348
9.0877	-1.2268
9.1007	-1.2176
9.1136	-1.2076
9.1266	-1.1972
9.1395	-1.187
9.1525	-1.1777
9.1654	-1.1699
9.1784	-1.1639
9.1913	-1.1595
9.2042	-1.1565
9.2172	-1.1542
9.2301	-1.1517
9.2431	-1.1485
9.256	-1.1441
9.269	-1.1384
9.2819	-1.132
9.2949	-1.1254
9.3078	-1.1196
9.3208	-1.1154
9.3337	-1.1137
9.3466	-1.1151
9.3596	-1.1197
9.3725	-1.1276
9.3855	-1.1387
9.3984	-1.1526
9.4114	-1.1691
9.4243	-1.1877
9.4373	-1.2082
9.4502	-1.2303
9.4632	-1.2535
9.4761	-1.2773
9.4891	-1.3009
9.502	-1.3235
9.5149	-1.344
9.5279	-1.3611
9.5408	-1.374
9.5538	-1.3817
9.5667	-1.3839
9.5797	-1.3805
9.5926	-1.3721
9.6056	-1.3594
9.6185	-1.3434
9.6315	-1.3253
9.6444	-1.306
9.6573	-1.2862
9.6703	-1.2662
9.6832	-1.2462
9.6962	-1.2262
9.7091	-1.2058
9.7221	-1.1854
9.735	-1.1649
9.748	-1.145
9.7609	-1.1261
9.7739	-1.1088
9.7868	-1.0937
9.7997	-1.0811
9.8127	-1.0713
9.8256	-1.0643
9.8386	-1.0604
9.8515	-1.0597
9.8645	-1.0624
9.8774	-1.0683
9.8904	-1.0772
9.9033	-1.0885
9.9163	-1.1016
9.9292	-1.1155
9.9421	-1.1293
9.9551	-1.1423
9.968	-1.1541
9.981	-1.1648
9.9939	-1.1748
10.0069	-1.185
10.0198	-1.1962
10.0328	-1.2095
10.0457	-1.2259
10.0587	-1.2459
10.0716	-1.2701
10.0845	-1.2987
10.0975	-1.3316
10.1104	-1.3687
10.1234	-1.4094
10.1363	-1.453
10.1493	-1.4986
10.1622	-1.5452
10.1752	-1.5915
10.1881	-1.6364
10.2011	-1.6789
10.214	-1.718
10.2269	-1.7532
10.2399	-1.7842
10.2528	-1.8112
10.2658	-1.8346
10.2787	-1.8548
10.2917	-1.8724
10.3046	-1.8879
10.3176	-1.9016
10.3305	-1.9134
10.3435	-1.9233
10.3564	-1.931
10.3693	-1.9361
10.3823	-1.9383
10.3952	-1.9374
10.4082	-1.9335
10.4211	-1.9268
10.4341	-1.9177
10.447	-1.9066
10.46	-1.8941
10.4729	-1.8806
10.4859	-1.8662
10.4988	-1.8513
10.5117	-1.8357
10.5247	-1.8193
10.5376	-1.802
10.5506	-1.7835
10.5635	-1.7638
10.5765	-1.7429
10.5894	-1.7206
10.6024	-1.6973
10.6153	-1.6732
10.6283	-1.6487
10.6412	-1.6244
10.6541	-1.6006
10.6671	-1.5781
10.68	-1.5572
10.693	-1.5386
10.7059	-1.5226
10.7189	-1.5095
10.7318	-1.4997
10.7448	-1.4931
10.7577	-1.4896
10.7707	-1.4889
10.7836	-1.4906
10.7965	-1.4943
10.8095	-1.4997
10.8224	-1.5064
10.8354	-1.5143
10.8483	-1.5234
10.8613	-1.5338
10.8742	-1.5457
10.8872	-1.5592
10.9001	-1.5744
10.9131	-1.5911
10.926	-1.609
10.9389	-1.6275
10.9519	-1.6461
10.9648	-1.6638
10.9778	-1.68
10.9907	-1.6939
11.0037	-1.705
11.0166	-1.713
11.0296	-1.7176
11.0425	-1.7191
11.0555	-1.7175
11.0684	-1.7133
11.0813	-1.7069
11.0943	-1.6988
11.1072	-1.6895
11.1202	-1.6793
11.1331	-1.6685
11.1461	-1.6573
11.159	-1.6457
11.172	-1.6338
11.1849	-1.6217
11.1979	-1.6094
11.2108	-1.5972
11.2237	-1.5851
11.2367	-1.5734
11.2496	-1.562
11.2626	-1.5508
11.2755	-1.5397
11.2885	-1.5283
11.3014	-1.5163
11.3144	-1.5036
11.3273	-1.4903
11.3403	-1.4764
11.3532	-1.4623
11.3661	-1.4483
11.3791	-1.435
11.392	-1.4227
11.405	-1.4118
11.4179	-1.4024
11.4309	-1.3947
11.4438	-1.3886
11.4568	-1.384
11.4697	-1.3806
11.4827	-1.3783
11.4956	-1.377
11.5085	-1.3765
11.5215	-1.3768
11.5344	-1.3776
11.5474	-1.3789
11.5603	-1.3806
11.5733	-1.3824
11.5862	-1.3841
11.5992	-1.3856
11.6121	-1.3865
11.6251	-1.3867
11.638	-1.3861
11.6509	-1.3845
11.6639	-1.3821
11.6768	-1.3787
11.6898	-1.3746
11.7027	-1.3698
11.7157	-1.3644
11.7286	-1.3584
11.7416	-1.3519
11.7545	-1.3449
11.7675	-1.3372
11.7804	-1.3291
11.7933	-1.3202
11.8063	-1.3107
11.8192	-1.3004
11.8322	-1.2894
11.8451	-1.2777
11.8581	-1.2655
11.871	-1.253
11.884	-1.2404
11.8969	-1.2278
11.9099	-1.2153
11.9228	-1.2032
11.9357	-1.1915
11.9487	-1.1802
11.9616	-1.1697
11.9746	-1.16
11.9875	-1.1512
12.0005	-1.1436
12.0134	-1.1371
12.0264	-1.1317
12.0393	-1.127
12.0523	-1.1227
12.0652	-1.1185
12.0782	-1.1141
12.0911	-1.1092
12.104	-1.1036
12.117	-1.0972
12.1299	-1.0901
12.1429	-1.0824
12.1558	-1.0742
12.1688	-1.0658
12.1817	-1.0573
12.1947	-1.0491
12.2076	-1.0414
12.2206	-1.0344
12.2335	-1.0283
12.2464	-1.0232
12.2594	-1.0191
12.2723	-1.0162
12.2853	-1.0143
12.2982	-1.0134
12.3112	-1.0133
12.3241	-1.0137
12.3371	-1.0145
12.35	-1.0155
12.363	-1.0163
12.3759	-1.0166
12.3888	-1.0164
12.4018	-1.0154
12.4147	-1.0133
12.4277	-1.0102
12.4406	-1.0058
12.4536	-1.0003
12.4665	-0.9938
12.4795	-0.9863
12.4924	-0.9783
12.5054	-0.97
12.5183	-0.962
12.5312	-0.9545
12.5442	-0.948
12.5571	-0.9428
12.5701	-0.9392
12.583	-0.9371
12.596	-0.9366
12.6089	-0.9375
12.6219	-0.9395
12.6348	-0.9423
12.6478	-0.9457
12.6607	-0.9493
12.6736	-0.9531
12.6866	-0.957
12.6995	-0.9611
12.7125	-0.9656
12.7254	-0.9708
12.7384	-0.9768
12.7513	-0.9836
12.7643	-0.9911
12.7772	-0.9991
12.7902	-1.0072
12.8031	-1.0151
12.816	-1.0221
12.829	-1.028
12.8419	-1.0323
12.8549	-1.0348
12.8678	-1.0354
12.8808	-1.034
12.8937	-1.0306
12.9067	-1.0252
12.9196	-1.0181
12.9326	-1.0093
12.9455	-0.9991
12.9584	-0.9878
12.9714	-0.9754
12.9843	-0.9623
12.9973	-0.9486
13.0102	-0.9344
13.0232	-0.9201
13.0361	-0.9056
13.0491	-0.8911
13.062	-0.8769
13.075	-0.8629
13.0879	-0.8494
13.1008	-0.8365
13.1138	-0.8243
13.1267	-0.8131
13.1397	-0.8031
13.1526	-0.7945
13.1656	-0.7874
13.1785	-0.7821
13.1915	-0.7785
13.2044	-0.7767
13.2174	-0.7766
13.2303	-0.7779
13.2432	-0.7803
13.2562	-0.7835
13.2691	-0.7872
13.2821	-0.7911
13.295	-0.7948
13.308	-0.7983
13.3209	-0.8015
13.3339	-0.8044
13.3468	-0.8071
13.3598	-0.8099
13.3727	-0.8127
13.3856	-0.8157
13.3986	-0.819
13.4115	-0.8226
13.4245	-0.8264
13.4374	-0.8302
13.4504	-0.8341
13.4633	-0.8378
13.4763	-0.8411
13.4892	-0.844
13.5022	-0.8463
13.5151	-0.848
13.528	-0.8491
13.541	-0.8495
13.5539	-0.8492
13.5669	-0.8484
13.5798	-0.8469
13.5928	-0.8449
13.6057	-0.8423
13.6187	-0.8391
13.6316	-0.8351
13.6446	-0.8305
13.6575	-0.8251
13.6704	-0.819
13.6834	-0.8121
13.6963	-0.8045
13.7093	-0.7962
13.7222	-0.7874
13.7352	-0.7783
13.7481	-0.7688
13.7611	-0.7591
13.774	-0.7494
13.787	-0.7397
13.7999	-0.7303
13.8128	-0.7212
13.8258	-0.7126
13.8387	-0.7047
13.8517	-0.6976
13.8646	-0.6914
13.8776	-0.6864
13.8905	-0.6823
13.9035	-0.6794
13.9164	-0.6773
13.9294	-0.6761
13.9423	-0.6756
13.9552	-0.6756
13.9682	-0.676
13.9811	-0.6765
13.9941	-0.677
14.007	-0.6773
14.02	-0.6773
14.0329	-0.6769
14.0459	-0.6758
14.0588	-0.6742
14.0718	-0.672
14.0847	-0.6693
14.0976	-0.6663
14.1106	-0.6629
14.1235	-0.6594
14.1365	-0.6559
14.1494	-0.6523
14.1624	-0.6488
14.1753	-0.6454
14.1883	-0.6422
14.2012	-0.639
14.2142	-0.636
14.2271	-0.633
14.24	-0.63
14.253	-0.6271
14.2659	-0.6242
14.2789	-0.6214
14.2918	-0.6186
14.3048	-0.6159
14.3177	-0.6133
14.3307	-0.6108
14.3436	-0.6085
14.3566	-0.6064
14.3695	-0.6047
14.3824	-0.6034
14.3954	-0.6025
14.4083	-0.6021
14.4213	-0.602
14.4342	-0.6023
14.4472	-0.6027
14.4601	-0.6032
14.4731	-0.6036
14.486	-0.6038
14.499	-0.6039
14.5119	-0.6036
14.5248	-0.603
14.5378	-0.6022
14.5507	-0.601
14.5637	-0.5997
14.5766	-0.5983
14.5896	-0.5967
14.6025	-0.595
14.6155	-0.5933
14.6284	-0.5915
14.6414	-0.5897
14.6543	-0.5877
14.6672	-0.5857
14.6802	-0.5835
14.6931	-0.5811
14.7061	-0.5786
14.719	-0.5759
14.732	-0.5729
14.7449	-0.5697
14.7579	-0.5663
14.7708	-0.5629
14.7838	-0.5594
14.7967	-0.5561
14.8097	-0.553
14.8226	-0.5502
14.8355	-0.5478
14.8485	-0.5456
14.8614	-0.5438
14.8744	-0.5423
14.8873	-0.541
14.9003	-0.5399
14.9132	-0.5389
14.9262	-0.538
14.9391	-0.537
14.9521	-0.5359
14.965	-0.5345
14.9779	-0.5329
14.9909	-0.5309
15.0038	-0.5285
15.0168	-0.5258
15.0297	-0.5226
15.0427	-0.519
15.0556	-0.5151
15.0686	-0.511
15.0815	-0.5066
15.0945	-0.502
15.1074	-0.4973
15.1203	-0.4925
15.1333	-0.4877
15.1462	-0.4828
15.1592	-0.4779
15.1721	-0.4729
15.1851	-0.468
15.198	-0.4631
15.211	-0.4582
15.2239	-0.4535
15.2369	-0.4489
15.2498	-0.4445
15.2627	-0.4403
15.2757	-0.4362
15.2886	-0.4322
15.3016	-0.4283
15.3145	-0.4246
15.3275	-0.4208
15.3404	-0.4172
15.3534	-0.4136
15.3663	-0.4101
15.3793	-0.4067
15.3922	-0.4035
15.4051	-0.4004
15.4181	-0.3976
15.431	-0.3949
15.444	-0.3924
15.4569	-0.3902
15.4699	-0.3881
15.4828	-0.3862
15.4958	-0.3846
15.5087	-0.3832
15.5217	-0.3821
15.5346	-0.3813
15.5475	-0.3808
15.5605	-0.3805
15.5734	-0.3803
15.5864	-0.3802
15.5993	-0.38
15.6123	-0.3795
15.6252	-0.3787
15.6382	-0.3774
15.6511	-0.3757
15.6641	-0.3734
15.677	-0.3707
15.6899	-0.3675
15.7029	-0.3639
15.7158	-0.36
15.7288	-0.3558
15.7417	-0.3515
15.7547	-0.3472
15.7676	-0.3429
15.7806	-0.3387
15.7935	-0.3347
15.8065	-0.3308
15.8194	-0.3271
15.8323	-0.3235
15.8453	-0.3201
15.8582	-0.3168
15.8712	-0.3137
15.8841	-0.3106
15.8971	-0.3077
15.91	-0.3048
15.923	-0.302
15.9359	-0.2992
15.9489	-0.2964
15.9618	-0.2936
15.9747	-0.2908
15.9877	-0.2878
16.0006	-0.2849
16.0136	-0.2819
16.0265	-0.2788
16.0395	-0.2756
16.0524	-0.2724
16.0654	-0.2692
16.0783	-0.2659
16.0913	-0.2625
16.1042	-0.259
16.1171	-0.2555
16.1301	-0.2518
16.143	-0.248
16.156	-0.2442
16.1689	-0.2404
16.1819	-0.2366
16.1948	-0.2328
16.2078	-0.229
16.2207	-0.2254
16.2337	-0.2218
16.2466	-0.2182
16.2595	-0.2147
16.2725	-0.2112
16.2854	-0.2077
16.2984	-0.2042
16.3113	-0.2007
16.3243	-0.1973
16.3372	-0.194
16.3502	-0.1908
16.3631	-0.1877
16.3761	-0.1847
16.389	-0.1818
16.4019	-0.1791
16.4149	-0.1764
16.4278	-0.1738
16.4408	-0.1713
16.4537	-0.1689
16.4667	-0.1666
16.4796	-0.1643
16.4926	-0.1619
16.5055	-0.1596
16.5185	-0.1572
16.5314	-0.1546
16.5443	-0.152
16.5573	-0.1491
16.5702	-0.1462
16.5832	-0.1431
16.5961	-0.1399
16.6091	-0.1367
16.622	-0.1335
16.635	-0.1303
16.6479	-0.1273
16.6609	-0.1244
16.6738	-0.1216
16.6867	-0.1189
16.6997	-0.1164
16.7126	-0.1139
16.7256	-0.1115
16.7385	-0.1091
16.7515	-0.1067
16.7644	-0.1042
16.7774	-0.1018
16.7903	-0.0993
16.8033	-0.0967
16.8162	-0.0941
16.8291	-0.0915
16.8421	-0.0888
16.855	-0.0861
16.868	-0.0834
16.8809	-0.0808
16.8939	-0.0782
16.9068	-0.0756
16.9198	-0.0731
16.9327	-0.0707
16.9457	-0.0682
16.9586	-0.0658
16.9715	-0.0635
16.9845	-0.0611
16.9974	-0.0588
17.0104	-0.0565
17.0233	-0.0543
17.0363	-0.0522
17.0492	-0.0502
17.0622	-0.0482
17.0751	-0.0464
17.0881	-0.0447
17.101	-0.0431
17.1139	-0.0415
17.1269	-0.04
17.1398	-0.0385
17.1528	-0.0369
17.1657	-0.0353
17.1787	-0.0336
17.1916	-0.0317
17.2046	-0.0298
17.2175	-0.0277
17.2305	-0.0255
17.2434	-0.0233
17.2563	-0.021
17.2693	-0.0188
17.2822	-0.0167
17.2952	-0.0146
17.3081	-0.0127
17.3211	-0.011
17.334	-0.0094
17.347	-0.008
17.3599	-0.0066
