# Energy(eV) epsilon_R
0	15.372
0.028	15.3736
0.0561	15.3784
0.0841	15.3864
0.1121	15.3976
0.1402	15.412
0.1682	15.4297
0.1963	15.4507
0.2243	15.4751
0.2523	15.5029
0.2804	15.5341
0.3084	15.5689
0.3364	15.6074
0.3645	15.6495
0.3925	15.6955
0.4206	15.7454
0.4486	15.7994
0.4766	15.8576
0.5047	15.9202
0.5327	15.9873
0.5607	16.0592
0.5888	16.136
0.6168	16.2181
0.6449	16.3056
0.6729	16.399
0.7009	16.4985
0.729	16.6046
0.757	16.7176
0.785	16.8381
0.8131	16.9667
0.8411	17.1038
0.8692	17.2502
0.8972	17.4064
0.9252	17.5728
0.9533	17.7494
0.9813	17.9358
1.0093	18.1309
1.0374	18.3333
1.0654	18.5416
1.0934	18.754
1.1215	18.9687
1.1495	19.1849
1.1776	19.403
1.2056	19.6244
1.2336	19.8509
1.2617	20.0842
1.2897	20.324
1.3177	20.568
1.3458	20.8127
1.3738	21.0536
1.4019	21.2861
1.4299	21.5066
1.4579	21.7159
1.486	21.9203
1.514	22.1291
1.542	22.3511
1.5701	22.5905
1.5981	22.8469
1.6262	23.1135
1.6542	23.3773
1.6822	23.6204
1.7103	23.8243
1.7383	23.9722
1.7663	24.0498
1.7944	24.0438
1.8224	23.9434
1.8505	23.7478
1.8785	23.4706
1.9065	23.1339
1.9346	22.7555
1.9626	22.3409
1.9906	21.8863
2.0187	21.3846
2.0467	20.8293
2.0747	20.2191
2.1028	19.5604
2.1308	18.8626
2.1589	18.1293
2.1869	17.3598
2.2149	16.5607
2.243	15.7555
2.271	14.979
2.299	14.2606
2.3271	13.6104
2.3551	13.0233
2.3832	12.4963
2.4112	12.037
2.4392	11.6534
2.4673	11.342
2.4953	11.0858
2.5233	10.8595
2.5514	10.637
2.5794	10.4002
2.6075	10.1431
2.6355	9.8671
2.6635	9.5719
2.6916	9.2517
2.7196	8.9018
2.7476	8.5271
2.7757	8.142
2.8037	7.7605
2.8318	7.3916
2.8598	7.0439
2.8878	6.7328
2.9159	6.477
2.9439	6.2872
2.9719	6.1617
3	6.0918
3.028	6.0698
3.056	6.0915
3.0841	6.1516
3.1121	6.237
3.1402	6.3274
3.1682	6.4042
3.1962	6.4599
3.2243	6.498
3.2523	6.5234
3.2803	6.534
3.3084	6.5209
3.3364	6.477
3.3645	6.4033
3.3925	6.3085
3.4205	6.2028
3.4486	6.0931
3.4766	5.9816
3.5046	5.8668
3.5327	5.7458
3.5607	5.6165
3.5888	5.4774
3.6168	5.3235
3.6448	5.1475
3.6729	4.945
3.7009	4.719
3.7289	4.4734
3.757	4.2052
3.785	3.9037
3.8131	3.5611
3.8411	3.186
3.8691	2.8008
3.8972	2.4266
3.9252	2.0708
3.9532	1.7301
3.9813	1.4
4.0093	1.078
4.0373	0.7626
4.0654	0.4527
4.0934	0.1509
4.1215	-0.136
4.1495	-0.3993
4.1775	-0.6343
4.2056	-0.844
4.2336	-1.0403
4.2616	-1.2403
4.2897	-1.458
4.3177	-1.6973
4.3458	-1.9498
4.3738	-2.1995
4.4018	-2.4288
4.4299	-2.6265
4.4579	-2.7906
4.4859	-2.9265
4.514	-3.0433
4.542	-3.1495
4.5701	-3.2509
4.5981	-3.3487
4.6261	-3.4416
4.6542	-3.5312
4.6822	-3.6249
4.7102	-3.7321
4.7383	-3.8581
4.7663	-4.0021
4.7944	-4.159
4.8224	-4.3222
4.8504	-4.4864
4.8785	-4.6488
4.9065	-4.8078
4.9345	-4.9616
4.9626	-5.1096
4.9906	-5.253
5.0186	-5.3938
5.0467	-5.5306
5.0747	-5.6584
5.1028	-5.7716
5.1308	-5.8678
5.1588	-5.9484
5.1869	-6.018
5.2149	-6.0833
5.2429	-6.1516
5.271	-6.227
5.299	-6.3072
5.3271	-6.3846
5.3551	-6.4494
5.3831	-6.4944
5.4112	-6.5188
5.4392	-6.5282
5.4672	-6.5322
5.4953	-6.5399
5.5233	-6.5544
5.5514	-6.5726
5.5794	-6.5889
5.6074	-6.5991
5.6355	-6.6019
5.6635	-6.5964
5.6915	-6.5832
5.7196	-6.5659
5.7476	-6.5512
5.7757	-6.5454
5.8037	-6.5509
5.8317	-6.5657
5.8598	-6.5857
5.8878	-6.6074
5.9158	-6.6303
5.9439	-6.6555
5.9719	-6.6838
5.9999	-6.7146
6.028	-6.7455
6.056	-6.7721
6.0841	-6.7874
6.1121	-6.7839
6.1401	-6.7573
6.1682	-6.7096
6.1962	-6.6482
6.2242	-6.5831
6.2523	-6.5231
6.2803	-6.4737
6.3084	-6.4362
6.3364	-6.4085
6.3644	-6.3849
6.3925	-6.3578
6.4205	-6.3206
6.4485	-6.2704
6.4766	-6.2089
6.5046	-6.14
6.5327	-6.0685
6.5607	-5.9985
6.5887	-5.9331
6.6168	-5.874
6.6448	-5.8215
6.6728	-5.774
6.7009	-5.7291
6.7289	-5.6839
6.757	-5.6369
6.785	-5.5879
6.813	-5.5369
6.8411	-5.4834
6.8691	-5.4266
6.8971	-5.3669
6.9252	-5.3061
6.9532	-5.2469
6.9812	-5.1914
7.0093	-5.1403
7.0373	-5.0923
7.0654	-5.0452
7.0934	-4.9973
7.1214	-4.9482
7.1495	-4.8989
7.1775	-4.8511
7.2055	-4.8059
7.2336	-4.7629
7.2616	-4.7207
7.2897	-4.6777
7.3177	-4.6324
7.3457	-4.5844
7.3738	-4.5334
7.4018	-4.4802
7.4298	-4.4263
7.4579	-4.3735
7.4859	-4.3239
7.514	-4.2784
7.542	-4.2363
7.57	-4.1959
7.5981	-4.1556
7.6261	-4.1148
7.6541	-4.0736
7.6822	-4.0324
7.7102	-3.9917
7.7383	-3.9517
7.7663	-3.9124
7.7943	-3.8732
7.8224	-3.8331
7.8504	-3.7912
7.8784	-3.7475
7.9065	-3.702
7.9345	-3.655
7.9625	-3.6069
7.9906	-3.5588
8.0186	-3.511
8.0467	-3.4636
8.0747	-3.4163
8.1027	-3.3691
8.1308	-3.3225
8.1588	-3.2776
8.1868	-3.2348
8.2149	-3.1946
8.2429	-3.1564
8.271	-3.1195
8.299	-3.083
8.327	-3.046
8.3551	-3.0085
8.3831	-2.9704
8.4111	-2.9324
8.4392	-2.895
8.4672	-2.8585
8.4953	-2.8229
8.5233	-2.788
8.5513	-2.7536
8.5794	-2.7198
8.6074	-2.6869
8.6354	-2.6553
8.6635	-2.6259
8.6915	-2.5991
8.7196	-2.575
8.7476	-2.553
8.7756	-2.5314
8.8037	-2.5089
8.8317	-2.4846
8.8597	-2.4589
8.8878	-2.4325
8.9158	-2.4063
8.9438	-2.3807
8.9719	-2.3559
8.9999	-2.3322
9.028	-2.3092
9.056	-2.2868
9.084	-2.2643
9.1121	-2.2414
9.1401	-2.2178
9.1681	-2.1938
9.1962	-2.1698
9.2242	-2.1461
9.2523	-2.1229
9.2803	-2.0996
9.3083	-2.076
9.3364	-2.0519
9.3644	-2.0272
9.3924	-2.002
9.4205	-1.9768
9.4485	-1.9521
9.4766	-1.9283
9.5046	-1.9054
9.5326	-1.883
9.5607	-1.8609
9.5887	-1.8388
9.6167	-1.8168
9.6448	-1.7953
9.6728	-1.7743
9.7009	-1.7538
9.7289	-1.7337
9.7569	-1.7135
9.785	-1.6932
9.813	-1.6728
9.841	-1.6521
9.8691	-1.6312
9.8971	-1.6098
9.9251	-1.5881
9.9532	-1.5662
9.9812	-1.5441
10.0093	-1.5221
10.0373	-1.5004
10.0653	-1.4791
10.0934	-1.4583
10.1214	-1.4379
10.1494	-1.418
10.1775	-1.3983
10.2055	-1.379
10.2336	-1.3599
10.2616	-1.3411
10.2896	-1.3223
10.3177	-1.3036
10.3457	-1.2847
10.3737	-1.2658
10.4018	-1.2468
10.4298	-1.2279
10.4579	-1.2093
10.4859	-1.191
10.5139	-1.173
10.542	-1.1551
10.57	-1.1372
10.598	-1.1194
10.6261	-1.1017
10.6541	-1.0841
10.6821	-1.0668
10.7102	-1.0497
10.7382	-1.0329
10.7663	-1.0162
10.7943	-0.9998
10.8223	-0.9835
10.8504	-0.9673
10.8784	-0.9514
10.9064	-0.9357
10.9345	-0.9203
10.9625	-0.905
10.9906	-0.89
11.0186	-0.8753
11.0466	-0.8607
11.0747	-0.8464
11.1027	-0.8323
11.1307	-0.8184
11.1588	-0.8047
11.1868	-0.7912
11.2149	-0.7779
11.2429	-0.7647
11.2709	-0.7517
11.299	-0.7389
11.327	-0.7262
11.355	-0.7137
11.3831	-0.7014
11.4111	-0.6891
11.4392	-0.6771
11.4672	-0.6651
11.4952	-0.6533
11.5233	-0.6416
11.5513	-0.6301
11.5793	-0.6186
11.6074	-0.6073
11.6354	-0.5961
11.6634	-0.585
11.6915	-0.5741
11.7195	-0.5632
11.7476	-0.5524
11.7756	-0.5418
11.8036	-0.5312
11.8317	-0.5207
11.8597	-0.5104
11.8877	-0.5001
11.9158	-0.4899
11.9438	-0.4798
11.9719	-0.4698
11.9999	-0.4599
12.0279	-0.45
12.056	-0.4403
12.084	-0.4306
12.112	-0.4209
12.1401	-0.4114
12.1681	-0.4019
12.1962	-0.3925
12.2242	-0.3832
12.2522	-0.3739
12.2803	-0.3647
12.3083	-0.3555
12.3363	-0.3465
12.3644	-0.3374
12.3924	-0.3284
12.4205	-0.3195
12.4485	-0.3106
12.4765	-0.3018
12.5046	-0.293
12.5326	-0.2843
12.5606	-0.2756
12.5887	-0.2669
12.6167	-0.2583
12.6447	-0.2497
12.6728	-0.2411
12.7008	-0.2326
12.7289	-0.224
12.7569	-0.2155
12.7849	-0.2071
12.813	-0.1986
12.841	-0.1901
12.869	-0.1817
12.8971	-0.1732
12.9251	-0.1648
12.9532	-0.1563
12.9812	-0.1478
13.0092	-0.1393
13.0373	-0.1307
13.0653	-0.1221
13.0933	-0.1135
13.1214	-0.1048
13.1494	-0.096
13.1775	-0.0871
13.2055	-0.0781
13.2335	-0.069
13.2616	-0.0598
13.2896	-0.0504
13.3176	-0.0409
13.3457	-0.0312
13.3737	-0.0215
13.4018	-0.0117
13.4298	-0.0019
13.4578	0.0077
13.4859	0.017
13.5139	0.026
13.5419	0.0346
13.57	0.0431
13.598	0.0512
13.626	0.0592
13.6541	0.0668
13.6821	0.074
13.7102	0.0805
13.7382	0.0865
13.7662	0.0919
13.7943	0.0971
13.8223	0.1023
13.8503	0.1077
13.8784	0.1133
13.9064	0.1191
13.9345	0.1248
13.9625	0.13
13.9905	0.1342
14.0186	0.1372
14.0466	0.1389
14.0746	0.1395
14.1027	0.1393
14.1307	0.1387
14.1588	0.1378
14.1868	0.1369
14.2148	0.1359
14.2429	0.1351
14.2709	0.1348
14.2989	0.1356
14.327	0.1376
14.355	0.1409
14.3831	0.145
14.4111	0.1494
14.4391	0.1538
14.4672	0.1578
14.4952	0.1611
14.5232	0.1637
14.5513	0.1654
14.5793	0.1661
14.6073	0.1655
14.6354	0.1638
14.6634	0.1608
14.6915	0.1567
14.7195	0.1522
14.7475	0.1479
14.7756	0.1446
14.8036	0.1427
14.8316	0.142
14.8597	0.1416
14.8877	0.1409
14.9158	0.1394
14.9438	0.1369
14.9718	0.1338
14.9999	0.1307
15.0279	0.1281
15.0559	0.1264
15.084	0.1256
15.112	0.1255
15.1401	0.1262
15.1681	0.1274
15.1961	0.1289
15.2242	0.1306
15.2522	0.1322
15.2802	0.1338
15.3083	0.1353
15.3363	0.1369
15.3644	0.1385
15.3924	0.1401
15.4204	0.1415
15.4485	0.1424
15.4765	0.1427
15.5045	0.1424
15.5326	0.1418
15.5606	0.1412
15.5886	0.1409
15.6167	0.1409
15.6447	0.141
15.6728	0.1412
15.7008	0.1413
15.7288	0.1415
15.7569	0.1417
15.7849	0.1422
15.8129	0.1429
15.841	0.1438
15.869	0.1446
15.8971	0.1454
15.9251	0.146
15.9531	0.1465
15.9812	0.1469
16.0092	0.1474
16.0372	0.148
16.0653	0.1489
16.0933	0.15
16.1214	0.1513
16.1494	0.1527
16.1774	0.1541
16.2055	0.1556
16.2335	0.1571
16.2615	0.1589
16.2896	0.1607
16.3176	0.1625
16.3457	0.1642
16.3737	0.1658
16.4017	0.1672
16.4298	0.1686
16.4578	0.1701
16.4858	0.1717
16.5139	0.1737
16.5419	0.1758
16.5699	0.1782
16.598	0.1808
16.626	0.1834
16.6541	0.1859
16.6821	0.1881
16.7101	0.19
16.7382	0.1917
16.7662	0.1934
16.7942	0.1951
16.8223	0.197
16.8503	0.199
16.8784	0.2011
16.9064	0.2033
16.9344	0.2055
16.9625	0.2076
16.9905	0.2097
17.0185	0.2119
17.0466	0.2141
17.0746	0.2165
17.1027	0.2192
17.1307	0.2221
17.1587	0.2251
17.1868	0.2281
17.2148	0.231
17.2428	0.2338
17.2709	0.2365
17.2989	0.2394
17.327	0.2423
17.355	0.2455
17.383	0.2489
17.4111	0.2525
17.4391	0.2563
17.4671	0.2603
17.4952	0.2645
17.5232	0.2687
17.5512	0.273
17.5793	0.2772
17.6073	0.2814
17.6354	0.2855
17.6634	0.2895
17.6914	0.2935
17.7195	0.2974
17.7475	0.3013
17.7755	0.3051
17.8036	0.3088
17.8316	0.3125
17.8597	0.3161
17.8877	0.3196
17.9157	0.3231
17.9438	0.3264
17.9718	0.3297
17.9998	0.333
18.0279	0.3362
18.0559	0.3394
18.084	0.3426
18.112	0.3457
18.14	0.3488
18.1681	0.3518
18.1961	0.3548
18.2241	0.3578
18.2522	0.3607
18.2802	0.3636
18.3083	0.3664
18.3363	0.3692
18.3643	0.372
18.3924	0.3748
18.4204	0.3775
18.4484	0.3802
18.4765	0.383
18.5045	0.3857
18.5325	0.3884
18.5606	0.3911
18.5886	0.3937
18.6167	0.3963
18.6447	0.3989
18.6727	0.4015
18.7008	0.4041
18.7288	0.4066
18.7568	0.4092
18.7849	0.4117
18.8129	0.4142
18.841	0.4167
18.869	0.4192
18.897	0.4216
18.9251	0.4241
18.9531	0.4265
18.9811	0.4289
19.0092	0.4312
19.0372	0.4336
19.0653	0.4359
19.0933	0.4382
19.1213	0.4405
19.1494	0.4427
19.1774	0.445
19.2054	0.4472
19.2335	0.4494
19.2615	0.4515
19.2896	0.4537
19.3176	0.4558
19.3456	0.458
19.3737	0.4601
19.4017	0.4621
19.4297	0.4642
19.4578	0.4663
19.4858	0.4683
19.5138	0.4703
19.5419	0.4723
19.5699	0.4743
19.598	0.4763
19.626	0.4783
19.654	0.4802
19.6821	0.4821
19.7101	0.4841
19.7381	0.486
19.7662	0.4879
19.7942	0.4897
19.8223	0.4916
19.8503	0.4935
19.8783	0.4953
19.9064	0.4972
19.9344	0.499
19.9624	0.5008
19.9905	0.5026
20.0185	0.5044
20.0466	0.5062
20.0746	0.5079
20.1026	0.5097
20.1307	0.5114
20.1587	0.5132
20.1867	0.5149
20.2148	0.5166
20.2428	0.5183
20.2709	0.52
20.2989	0.5217
20.3269	0.5234
20.355	0.525
20.383	0.5267
20.411	0.5283
20.4391	0.53
20.4671	0.5316
20.4951	0.5332
20.5232	0.5348
20.5512	0.5364
20.5793	0.538
20.6073	0.5396
20.6353	0.5412
20.6634	0.5427
20.6914	0.5443
20.7194	0.5458
20.7475	0.5474
20.7755	0.5489
20.8036	0.5504
20.8316	0.5519
20.8596	0.5534
20.8877	0.5549
20.9157	0.5564
20.9437	0.5579
20.9718	0.5594
20.9998	0.5609
21.0279	0.5623
21.0559	0.5638
21.0839	0.5652
21.112	0.5667
21.14	0.5681
21.168	0.5695
21.1961	0.5709
21.2241	0.5723
21.2522	0.5738
21.2802	0.5751
21.3082	0.5765
21.3363	0.5779
21.3643	0.5793
21.3923	0.5807
21.4204	0.582
21.4484	0.5834
21.4764	0.5847
21.5045	0.5861
21.5325	0.5874
21.5606	0.5888
21.5886	0.5901
21.6166	0.5914
21.6447	0.5927
21.6727	0.594
21.7007	0.5953
21.7288	0.5966
21.7568	0.5979
21.7849	0.5992
21.8129	0.6005
21.8409	0.6017
21.869	0.603
21.897	0.6042
21.925	0.6055
21.9531	0.6067
21.9811	0.608
22.0092	0.6092
22.0372	0.6105
22.0652	0.6117
22.0933	0.6129
22.1213	0.6141
22.1493	0.6153
22.1774	0.6165
22.2054	0.6177
22.2335	0.6189
22.2615	0.6201
22.2895	0.6213
22.3176	0.6225
22.3456	0.6236
22.3736	0.6248
22.4017	0.626
22.4297	0.6271
22.4577	0.6283
22.4858	0.6294
22.5138	0.6306
22.5419	0.6317
22.5699	0.6328
22.5979	0.634
22.626	0.6351
22.654	0.6362
22.682	0.6373
22.7101	0.6384
22.7381	0.6395
22.7662	0.6406
22.7942	0.6417
22.8222	0.6428
22.8503	0.6439
22.8783	0.645
22.9063	0.6461
22.9344	0.6471
22.9624	0.6482
22.9905	0.6493
23.0185	0.6503
23.0465	0.6514
23.0746	0.6524
23.1026	0.6535
23.1306	0.6545
23.1587	0.6556
23.1867	0.6566
23.2148	0.6576
23.2428	0.6587
23.2708	0.6597
23.2989	0.6607
23.3269	0.6617
23.3549	0.6627
23.383	0.6637
23.411	0.6647
23.439	0.6657
23.4671	0.6667
23.4951	0.6677
23.5232	0.6687
23.5512	0.6697
23.5792	0.6707
23.6073	0.6717
23.6353	0.6726
23.6633	0.6736
23.6914	0.6746
23.7194	0.6755
23.7475	0.6765
23.7755	0.6774
23.8035	0.6784
23.8316	0.6793
23.8596	0.6803
23.8876	0.6812
23.9157	0.6821
23.9437	0.6831
23.9718	0.684
23.9998	0.6849
24.0278	0.6858
24.0559	0.6868
24.0839	0.6877
24.1119	0.6886
24.14	0.6895
24.168	0.6904
24.1961	0.6913
24.2241	0.6922
24.2521	0.6931
24.2802	0.694
24.3082	0.6949
24.3362	0.6958
24.3643	0.6967
24.3923	0.6975
24.4203	0.6984
24.4484	0.6993
24.4764	0.7001
24.5045	0.701
24.5325	0.7019
24.5605	0.7027
24.5886	0.7036
24.6166	0.7045
24.6446	0.7053
24.6727	0.7062
24.7007	0.707
24.7288	0.7078
24.7568	0.7087
24.7848	0.7095
24.8129	0.7103
24.8409	0.7112
24.8689	0.712
24.897	0.7128
24.925	0.7137
24.9531	0.7145
24.9811	0.7153
25.0091	0.7161
25.0372	0.7169
25.0652	0.7177
25.0932	0.7185
25.1213	0.7193
25.1493	0.7201
25.1774	0.7209
25.2054	0.7217
25.2334	0.7225
25.2615	0.7233
25.2895	0.7241
25.3175	0.7249
25.3456	0.7257
25.3736	0.7264
25.4016	0.7272
25.4297	0.728
25.4577	0.7288
25.4858	0.7295
25.5138	0.7303
25.5418	0.7311
25.5699	0.7318
25.5979	0.7326
25.6259	0.7333
25.654	0.7341
25.682	0.7348
25.7101	0.7356
25.7381	0.7363
25.7661	0.7371
25.7942	0.7378
25.8222	0.7386
25.8502	0.7393
25.8783	0.74
25.9063	0.7408
25.9344	0.7415
25.9624	0.7422
25.9904	0.743
26.0185	0.7437
26.0465	0.7444
26.0745	0.7451
26.1026	0.7458
26.1306	0.7466
26.1587	0.7473
26.1867	0.748
26.2147	0.7487
26.2428	0.7494
26.2708	0.7501
26.2988	0.7508
26.3269	0.7515
26.3549	0.7522
26.3829	0.7529
26.411	0.7536
26.439	0.7543
26.4671	0.755
26.4951	0.7556
26.5231	0.7563
26.5512	0.757
26.5792	0.7577
26.6072	0.7584
26.6353	0.759
26.6633	0.7597
26.6914	0.7604
26.7194	0.7611
26.7474	0.7617
26.7755	0.7624
26.8035	0.7631
26.8315	0.7637
26.8596	0.7644
26.8876	0.7651
26.9157	0.7657
26.9437	0.7664
26.9717	0.767
26.9998	0.7677
27.0278	0.7683
27.0558	0.769
27.0839	0.7696
27.1119	0.7703
27.14	0.7709
27.168	0.7715
27.196	0.7722
27.2241	0.7728
27.2521	0.7735
27.2801	0.7741
27.3082	0.7747
27.3362	0.7753
27.3642	0.776
27.3923	0.7766
27.4203	0.7772
27.4484	0.7778
27.4764	0.7785
27.5044	0.7791
27.5325	0.7797
27.5605	0.7803
27.5885	0.7809
27.6166	0.7816
27.6446	0.7822
27.6727	0.7828
27.7007	0.7834
27.7287	0.784
27.7568	0.7846
27.7848	0.7852
27.8128	0.7858
27.8409	0.7864
27.8689	0.787
27.897	0.7876
27.925	0.7882
27.953	0.7888
27.9811	0.7894
28.0091	0.79
28.0371	0.7906
28.0652	0.7911
28.0932	0.7917
28.1213	0.7923
28.1493	0.7929
28.1773	0.7935
28.2054	0.7941
28.2334	0.7946
28.2614	0.7952
28.2895	0.7958
28.3175	0.7964
28.3455	0.7969
28.3736	0.7975
28.4016	0.7981
28.4297	0.7987
28.4577	0.7992
28.4857	0.7998
28.5138	0.8004
28.5418	0.8009
28.5698	0.8015
28.5979	0.802
28.6259	0.8026
28.654	0.8032
28.682	0.8037
28.71	0.8043
28.7381	0.8048
28.7661	0.8054
28.7941	0.8059
28.8222	0.8065
28.8502	0.807
28.8783	0.8076
28.9063	0.8081
28.9343	0.8087
28.9624	0.8092
28.9904	0.8098
29.0184	0.8103
29.0465	0.8109
29.0745	0.8114
29.1026	0.8119
29.1306	0.8125
29.1586	0.813
29.1867	0.8135
29.2147	0.8141
29.2427	0.8146
29.2708	0.8151
29.2988	0.8157
29.3268	0.8162
29.3549	0.8167
29.3829	0.8172
29.411	0.8178
29.439	0.8183
29.467	0.8188
29.4951	0.8193
29.5231	0.8199
29.5511	0.8204
29.5792	0.8209
29.6072	0.8214
29.6353	0.8219
29.6633	0.8225
29.6913	0.823
29.7194	0.8235
29.7474	0.824
29.7754	0.8245
29.8035	0.825
29.8315	0.8255
29.8596	0.826
29.8876	0.8265
29.9156	0.8271
29.9437	0.8276
29.9717	0.8281
29.9997	0.8286
30.0278	0.8291
30.0558	0.8296
30.0839	0.8301
30.1119	0.8306
30.1399	0.8311
30.168	0.8316
30.196	0.8321
30.224	0.8326
30.2521	0.8331
30.2801	0.8336
30.3081	0.834
30.3362	0.8345
30.3642	0.835
30.3923	0.8355
30.4203	0.836
30.4483	0.8365
30.4764	0.837
30.5044	0.8375
30.5324	0.838
30.5605	0.8385
30.5885	0.8389
30.6166	0.8394
30.6446	0.8399
30.6726	0.8404
30.7007	0.8409
30.7287	0.8414
30.7567	0.8418
30.7848	0.8423
30.8128	0.8428
30.8409	0.8433
30.8689	0.8437
30.8969	0.8442
30.925	0.8447
30.953	0.8452
30.981	0.8456
31.0091	0.8461
31.0371	0.8466
31.0651	0.8471
31.0932	0.8475
31.1212	0.848
31.1493	0.8485
31.1773	0.8489
31.2053	0.8494
31.2334	0.8499
31.2614	0.8504
31.2894	0.8508
31.3175	0.8513
31.3455	0.8517
31.3736	0.8522
31.4016	0.8527
31.4296	0.8531
31.4577	0.8536
31.4857	0.8541
31.5137	0.8545
31.5418	0.855
31.5698	0.8554
31.5979	0.8559
31.6259	0.8564
31.6539	0.8568
31.682	0.8573
31.71	0.8577
31.738	0.8582
31.7661	0.8587
31.7941	0.8591
31.8222	0.8596
31.8502	0.86
31.8782	0.8605
31.9063	0.8609
31.9343	0.8614
31.9623	0.8618
31.9904	0.8623
32.0184	0.8627
32.0464	0.8632
32.0745	0.8636
32.1025	0.8641
32.1306	0.8645
32.1586	0.865
32.1866	0.8654
32.2147	0.8659
32.2427	0.8663
32.2707	0.8668
32.2988	0.8672
32.3268	0.8677
32.3549	0.8681
32.3829	0.8686
32.4109	0.869
32.439	0.8695
32.467	0.8699
32.495	0.8704
32.5231	0.8708
32.5511	0.8713
32.5792	0.8717
32.6072	0.8721
32.6352	0.8726
32.6633	0.873
32.6913	0.8735
32.7193	0.8739
32.7474	0.8744
32.7754	0.8748
32.8035	0.8752
32.8315	0.8757
32.8595	0.8761
32.8876	0.8766
32.9156	0.877
32.9436	0.8774
32.9717	0.8779
32.9997	0.8783
33.0277	0.8788
33.0558	0.8792
33.0838	0.8796
33.1119	0.8801
33.1399	0.8805
33.1679	0.881
33.196	0.8814
33.224	0.8818
33.252	0.8823
33.2801	0.8827
33.3081	0.8831
33.3362	0.8836
33.3642	0.884
33.3922	0.8845
33.4203	0.8849
33.4483	0.8853
33.4763	0.8858
33.5044	0.8862
33.5324	0.8866
33.5605	0.8871
33.5885	0.8875
33.6165	0.888
33.6446	0.8884
33.6726	0.8888
33.7006	0.8893
33.7287	0.8897
33.7567	0.8901
33.7848	0.8906
33.8128	0.891
33.8408	0.8915
33.8689	0.8919
33.8969	0.8923
33.9249	0.8928
33.953	0.8932
33.981	0.8936
34.009	0.8941
34.0371	0.8945
34.0651	0.8949
34.0932	0.8954
34.1212	0.8958
34.1492	0.8963
34.1773	0.8967
34.2053	0.8971
34.2333	0.8976
34.2614	0.898
34.2894	0.8985
34.3175	0.8989
34.3455	0.8993
34.3735	0.8998
34.4016	0.9002
34.4296	0.9006
34.4576	0.9011
34.4857	0.9015
34.5137	0.902
34.5418	0.9024
34.5698	0.9028
34.5978	0.9033
34.6259	0.9037
34.6539	0.9042
34.6819	0.9046
34.71	0.9051
34.738	0.9055
34.7661	0.9059
34.7941	0.9064
34.8221	0.9068
34.8502	0.9073
34.8782	0.9077
34.9062	0.9082
34.9343	0.9086
34.9623	0.9091
34.9903	0.9095
35.0184	0.91
35.0464	0.9104
35.0745	0.9108
35.1025	0.9113
35.1305	0.9117
35.1586	0.9122
35.1866	0.9126
35.2146	0.9131
35.2427	0.9135
35.2707	0.914
35.2988	0.9145
35.3268	0.9149
35.3548	0.9154
35.3829	0.9158
35.4109	0.9163
35.4389	0.9167
35.467	0.9172
35.495	0.9176
35.5231	0.9181
35.5511	0.9186
35.5791	0.919
35.6072	0.9195
35.6352	0.9199
35.6632	0.9204
35.6913	0.9209
35.7193	0.9213
35.7474	0.9218
35.7754	0.9222
35.8034	0.9227
35.8315	0.9232
35.8595	0.9236
35.8875	0.9241
35.9156	0.9246
35.9436	0.9251
35.9716	0.9255
35.9997	0.926
36.0277	0.9265
36.0558	0.9269
36.0838	0.9274
36.1118	0.9279
36.1399	0.9284
36.1679	0.9289
36.1959	0.9293
36.224	0.9298
36.252	0.9303
36.2801	0.9308
36.3081	0.9313
36.3361	0.9317
36.3642	0.9322
36.3922	0.9327
36.4202	0.9332
36.4483	0.9337
36.4763	0.9342
36.5044	0.9347
36.5324	0.9352
36.5604	0.9357
36.5885	0.9362
36.6165	0.9367
36.6445	0.9372
36.6726	0.9377
36.7006	0.9382
36.7287	0.9387
36.7567	0.9392
36.7847	0.9397
36.8128	0.9402
36.8408	0.9407
36.8688	0.9412
36.8969	0.9418
36.9249	0.9423
36.9529	0.9428
36.981	0.9433
37.009	0.9438
37.0371	0.9444
37.0651	0.9449
37.0931	0.9454
37.1212	0.9459
37.1492	0.9465
37.1772	0.947
37.2053	0.9475
37.2333	0.9481
37.2614	0.9486
37.2894	0.9492
37.3174	0.9497
37.3455	0.9503
37.3735	0.9508
37.4015	0.9514
37.4296	0.9519
37.4576	0.9525
37.4857	0.953
37.5137	0.9536
37.5417	0.9541
37.5698	0.9547
37.5978	0.9553
37.6258	0.9559
37.6539	0.9564
37.6819	0.957
37.71	0.9576
37.738	0.9582
